#  E (eV)   dos(E)     Int dos(E) EFermi =    7.114 eV
 -12.573  0.0000E+00  0.0000E+00
 -12.563  0.4262E-02  0.1421E-04
 -12.553  0.1654E-01  0.1129E-03
 -12.543  0.3273E-01  0.3568E-03
 -12.533  0.5193E-01  0.7776E-03
 -12.523  0.7415E-01  0.1405E-02
 -12.513  0.9938E-01  0.2271E-02
 -12.503  0.1272E+00  0.3402E-02
 -12.493  0.1570E+00  0.4821E-02
 -12.483  0.1889E+00  0.6549E-02
 -12.473  0.2229E+00  0.8606E-02
 -12.463  0.2435E+00  0.1099E-01
 -12.453  0.2294E+00  0.1336E-01
 -12.443  0.2360E+00  0.1565E-01
 -12.433  0.2512E+00  0.1809E-01
 -12.423  0.2637E+00  0.2067E-01
 -12.413  0.2734E+00  0.2336E-01
 -12.403  0.2821E+00  0.2613E-01
 -12.393  0.2921E+00  0.2900E-01
 -12.383  0.3003E+00  0.3196E-01
 -12.373  0.3065E+00  0.3500E-01
 -12.363  0.3172E+00  0.3811E-01
 -12.353  0.3292E+00  0.4135E-01
 -12.343  0.3411E+00  0.4470E-01
 -12.333  0.3216E+00  0.4790E-01
 -12.323  0.3409E+00  0.5121E-01
 -12.313  0.3621E+00  0.5473E-01
 -12.303  0.3853E+00  0.5846E-01
 -12.293  0.4107E+00  0.6244E-01
 -12.283  0.4389E+00  0.6669E-01
 -12.273  0.4699E+00  0.7123E-01
 -12.263  0.4628E+00  0.7598E-01
 -12.253  0.4813E+00  0.8070E-01
 -12.243  0.5015E+00  0.8561E-01
 -12.233  0.5260E+00  0.9075E-01
 -12.223  0.5518E+00  0.9614E-01
 -12.213  0.5753E+00  0.1018E+00
 -12.203  0.5963E+00  0.1076E+00
 -12.193  0.6137E+00  0.1137E+00
 -12.183  0.6253E+00  0.1199E+00
 -12.173  0.6338E+00  0.1262E+00
 -12.163  0.6395E+00  0.1326E+00
 -12.153  0.6421E+00  0.1390E+00
 -12.143  0.6328E+00  0.1454E+00
 -12.133  0.6009E+00  0.1515E+00
 -12.123  0.5849E+00  0.1574E+00
 -12.113  0.5865E+00  0.1633E+00
 -12.103  0.5884E+00  0.1692E+00
 -12.093  0.5908E+00  0.1751E+00
 -12.083  0.5935E+00  0.1810E+00
 -12.073  0.5966E+00  0.1869E+00
 -12.063  0.5999E+00  0.1929E+00
 -12.053  0.6032E+00  0.1989E+00
 -12.043  0.6055E+00  0.2050E+00
 -12.033  0.6078E+00  0.2110E+00
 -12.023  0.6100E+00  0.2171E+00
 -12.013  0.6128E+00  0.2232E+00
 -12.003  0.6152E+00  0.2294E+00
 -11.993  0.6172E+00  0.2355E+00
 -11.983  0.6189E+00  0.2417E+00
 -11.973  0.6200E+00  0.2479E+00
 -11.963  0.6206E+00  0.2541E+00
 -11.953  0.6207E+00  0.2603E+00
 -11.943  0.6210E+00  0.2665E+00
 -11.933  0.6212E+00  0.2727E+00
 -11.923  0.6203E+00  0.2790E+00
 -11.913  0.6186E+00  0.2852E+00
 -11.903  0.6170E+00  0.2913E+00
 -11.893  0.6157E+00  0.2975E+00
 -11.883  0.6147E+00  0.3036E+00
 -11.873  0.6140E+00  0.3098E+00
 -11.863  0.6137E+00  0.3159E+00
 -11.853  0.6137E+00  0.3221E+00
 -11.843  0.6141E+00  0.3282E+00
 -11.833  0.6150E+00  0.3343E+00
 -11.823  0.6138E+00  0.3405E+00
 -11.813  0.6115E+00  0.3466E+00
 -11.803  0.6122E+00  0.3527E+00
 -11.793  0.6127E+00  0.3589E+00
 -11.783  0.6132E+00  0.3650E+00
 -11.773  0.6135E+00  0.3711E+00
 -11.763  0.6141E+00  0.3773E+00
 -11.753  0.6148E+00  0.3834E+00
 -11.743  0.6154E+00  0.3896E+00
 -11.733  0.6159E+00  0.3957E+00
 -11.723  0.6163E+00  0.4019E+00
 -11.713  0.6167E+00  0.4080E+00
 -11.703  0.6139E+00  0.4142E+00
 -11.693  0.6151E+00  0.4203E+00
 -11.683  0.6162E+00  0.4265E+00
 -11.673  0.6174E+00  0.4327E+00
 -11.663  0.6186E+00  0.4388E+00
 -11.653  0.6197E+00  0.4450E+00
 -11.643  0.6209E+00  0.4512E+00
 -11.633  0.6181E+00  0.4574E+00
 -11.623  0.6180E+00  0.4636E+00
 -11.613  0.6177E+00  0.4698E+00
 -11.603  0.6175E+00  0.4760E+00
 -11.593  0.6174E+00  0.4822E+00
 -11.583  0.6173E+00  0.4883E+00
 -11.573  0.6172E+00  0.4945E+00
 -11.563  0.6168E+00  0.5007E+00
 -11.553  0.6162E+00  0.5068E+00
 -11.543  0.6155E+00  0.5130E+00
 -11.533  0.6148E+00  0.5191E+00
 -11.523  0.6141E+00  0.5253E+00
 -11.513  0.6110E+00  0.5314E+00
 -11.503  0.6076E+00  0.5375E+00
 -11.493  0.6079E+00  0.5436E+00
 -11.483  0.6084E+00  0.5497E+00
 -11.473  0.6088E+00  0.5558E+00
 -11.463  0.6093E+00  0.5618E+00
 -11.453  0.6097E+00  0.5679E+00
 -11.443  0.6102E+00  0.5740E+00
 -11.433  0.6106E+00  0.5801E+00
 -11.423  0.6111E+00  0.5863E+00
 -11.413  0.6117E+00  0.5924E+00
 -11.403  0.6124E+00  0.5985E+00
 -11.393  0.6131E+00  0.6046E+00
 -11.383  0.6138E+00  0.6107E+00
 -11.373  0.6146E+00  0.6169E+00
 -11.363  0.6155E+00  0.6230E+00
 -11.353  0.6164E+00  0.6292E+00
 -11.343  0.6173E+00  0.6354E+00
 -11.333  0.6184E+00  0.6415E+00
 -11.323  0.6194E+00  0.6477E+00
 -11.313  0.6206E+00  0.6539E+00
 -11.303  0.6218E+00  0.6601E+00
 -11.293  0.6231E+00  0.6664E+00
 -11.283  0.6240E+00  0.6726E+00
 -11.273  0.6246E+00  0.6789E+00
 -11.263  0.6251E+00  0.6851E+00
 -11.253  0.6253E+00  0.6914E+00
 -11.243  0.6254E+00  0.6976E+00
 -11.233  0.6254E+00  0.7039E+00
 -11.223  0.6253E+00  0.7101E+00
 -11.213  0.6250E+00  0.7164E+00
 -11.203  0.6246E+00  0.7226E+00
 -11.193  0.6242E+00  0.7289E+00
 -11.183  0.6238E+00  0.7351E+00
 -11.173  0.6234E+00  0.7413E+00
 -11.163  0.6231E+00  0.7476E+00
 -11.153  0.6229E+00  0.7538E+00
 -11.143  0.6229E+00  0.7600E+00
 -11.133  0.6230E+00  0.7663E+00
 -11.123  0.6232E+00  0.7725E+00
 -11.113  0.6234E+00  0.7787E+00
 -11.103  0.6233E+00  0.7850E+00
 -11.093  0.6233E+00  0.7912E+00
 -11.083  0.6231E+00  0.7974E+00
 -11.073  0.6232E+00  0.8036E+00
 -11.063  0.6232E+00  0.8099E+00
 -11.053  0.6231E+00  0.8161E+00
 -11.043  0.6229E+00  0.8223E+00
 -11.033  0.6226E+00  0.8286E+00
 -11.023  0.6220E+00  0.8348E+00
 -11.013  0.6214E+00  0.8410E+00
 -11.003  0.6207E+00  0.8472E+00
 -10.993  0.6200E+00  0.8534E+00
 -10.983  0.6189E+00  0.8596E+00
 -10.973  0.6178E+00  0.8658E+00
 -10.963  0.6168E+00  0.8720E+00
 -10.953  0.6159E+00  0.8781E+00
 -10.943  0.6150E+00  0.8843E+00
 -10.933  0.6143E+00  0.8904E+00
 -10.923  0.6137E+00  0.8966E+00
 -10.913  0.6133E+00  0.9027E+00
 -10.903  0.6129E+00  0.9088E+00
 -10.893  0.6128E+00  0.9150E+00
 -10.883  0.6130E+00  0.9211E+00
 -10.873  0.6133E+00  0.9272E+00
 -10.863  0.6137E+00  0.9334E+00
 -10.853  0.6141E+00  0.9395E+00
 -10.843  0.6146E+00  0.9457E+00
 -10.833  0.6150E+00  0.9518E+00
 -10.823  0.6155E+00  0.9580E+00
 -10.813  0.6160E+00  0.9641E+00
 -10.803  0.6165E+00  0.9703E+00
 -10.793  0.6171E+00  0.9764E+00
 -10.783  0.6176E+00  0.9826E+00
 -10.773  0.6181E+00  0.9888E+00
 -10.763  0.6187E+00  0.9950E+00
 -10.753  0.6193E+00  0.1001E+01
 -10.743  0.6200E+00  0.1007E+01
 -10.733  0.6206E+00  0.1014E+01
 -10.723  0.6212E+00  0.1020E+01
 -10.713  0.6218E+00  0.1026E+01
 -10.703  0.6224E+00  0.1032E+01
 -10.693  0.6231E+00  0.1038E+01
 -10.683  0.6237E+00  0.1045E+01
 -10.673  0.6244E+00  0.1051E+01
 -10.663  0.6251E+00  0.1057E+01
 -10.653  0.6258E+00  0.1063E+01
 -10.643  0.6265E+00  0.1070E+01
 -10.633  0.6273E+00  0.1076E+01
 -10.623  0.6280E+00  0.1082E+01
 -10.613  0.6288E+00  0.1089E+01
 -10.603  0.6296E+00  0.1095E+01
 -10.593  0.6304E+00  0.1101E+01
 -10.583  0.6313E+00  0.1107E+01
 -10.573  0.6322E+00  0.1114E+01
 -10.563  0.6321E+00  0.1120E+01
 -10.553  0.6314E+00  0.1126E+01
 -10.543  0.6314E+00  0.1133E+01
 -10.533  0.6315E+00  0.1139E+01
 -10.523  0.6314E+00  0.1145E+01
 -10.513  0.6314E+00  0.1152E+01
 -10.503  0.6314E+00  0.1158E+01
 -10.493  0.6315E+00  0.1164E+01
 -10.483  0.6315E+00  0.1171E+01
 -10.473  0.6314E+00  0.1177E+01
 -10.463  0.6314E+00  0.1183E+01
 -10.453  0.6302E+00  0.1190E+01
 -10.443  0.6304E+00  0.1196E+01
 -10.433  0.6306E+00  0.1202E+01
 -10.423  0.6307E+00  0.1208E+01
 -10.413  0.6309E+00  0.1215E+01
 -10.403  0.6311E+00  0.1221E+01
 -10.393  0.6313E+00  0.1227E+01
 -10.383  0.6300E+00  0.1234E+01
 -10.373  0.6296E+00  0.1240E+01
 -10.363  0.6292E+00  0.1246E+01
 -10.353  0.6288E+00  0.1253E+01
 -10.343  0.6285E+00  0.1259E+01
 -10.333  0.6282E+00  0.1265E+01
 -10.323  0.6278E+00  0.1271E+01
 -10.313  0.6273E+00  0.1278E+01
 -10.303  0.6268E+00  0.1284E+01
 -10.293  0.6263E+00  0.1290E+01
 -10.283  0.6255E+00  0.1296E+01
 -10.273  0.6239E+00  0.1303E+01
 -10.263  0.6231E+00  0.1309E+01
 -10.253  0.6230E+00  0.1315E+01
 -10.243  0.6229E+00  0.1321E+01
 -10.233  0.6228E+00  0.1328E+01
 -10.223  0.6227E+00  0.1334E+01
 -10.213  0.6227E+00  0.1340E+01
 -10.203  0.6226E+00  0.1346E+01
 -10.193  0.6225E+00  0.1353E+01
 -10.183  0.6224E+00  0.1359E+01
 -10.173  0.6225E+00  0.1365E+01
 -10.163  0.6225E+00  0.1371E+01
 -10.153  0.6225E+00  0.1377E+01
 -10.143  0.6226E+00  0.1384E+01
 -10.133  0.6227E+00  0.1390E+01
 -10.123  0.6229E+00  0.1396E+01
 -10.113  0.6230E+00  0.1402E+01
 -10.103  0.6232E+00  0.1409E+01
 -10.093  0.6234E+00  0.1415E+01
 -10.083  0.6237E+00  0.1421E+01
 -10.073  0.6240E+00  0.1427E+01
 -10.063  0.6244E+00  0.1434E+01
 -10.053  0.6248E+00  0.1440E+01
 -10.043  0.6252E+00  0.1446E+01
 -10.033  0.6256E+00  0.1452E+01
 -10.023  0.6260E+00  0.1459E+01
 -10.013  0.6264E+00  0.1465E+01
 -10.003  0.6269E+00  0.1471E+01
  -9.993  0.6273E+00  0.1477E+01
  -9.983  0.6277E+00  0.1484E+01
  -9.973  0.6281E+00  0.1490E+01
  -9.963  0.6285E+00  0.1496E+01
  -9.953  0.6290E+00  0.1502E+01
  -9.943  0.6294E+00  0.1509E+01
  -9.933  0.6298E+00  0.1515E+01
  -9.923  0.6303E+00  0.1521E+01
  -9.913  0.6307E+00  0.1528E+01
  -9.903  0.6312E+00  0.1534E+01
  -9.893  0.6317E+00  0.1540E+01
  -9.883  0.6322E+00  0.1547E+01
  -9.873  0.6327E+00  0.1553E+01
  -9.863  0.6332E+00  0.1559E+01
  -9.853  0.6337E+00  0.1566E+01
  -9.843  0.6342E+00  0.1572E+01
  -9.833  0.6347E+00  0.1578E+01
  -9.823  0.6352E+00  0.1585E+01
  -9.813  0.6358E+00  0.1591E+01
  -9.803  0.6363E+00  0.1597E+01
  -9.793  0.6368E+00  0.1604E+01
  -9.783  0.6374E+00  0.1610E+01
  -9.773  0.6379E+00  0.1616E+01
  -9.763  0.6385E+00  0.1623E+01
  -9.753  0.6390E+00  0.1629E+01
  -9.743  0.6396E+00  0.1636E+01
  -9.733  0.6401E+00  0.1642E+01
  -9.723  0.6403E+00  0.1648E+01
  -9.713  0.6406E+00  0.1655E+01
  -9.703  0.6407E+00  0.1661E+01
  -9.693  0.6408E+00  0.1668E+01
  -9.683  0.6408E+00  0.1674E+01
  -9.673  0.6407E+00  0.1680E+01
  -9.663  0.6407E+00  0.1687E+01
  -9.653  0.6406E+00  0.1693E+01
  -9.643  0.6404E+00  0.1700E+01
  -9.633  0.6402E+00  0.1706E+01
  -9.623  0.6400E+00  0.1712E+01
  -9.613  0.6399E+00  0.1719E+01
  -9.603  0.6398E+00  0.1725E+01
  -9.593  0.6398E+00  0.1732E+01
  -9.583  0.6398E+00  0.1738E+01
  -9.573  0.6399E+00  0.1744E+01
  -9.563  0.6399E+00  0.1751E+01
  -9.553  0.6398E+00  0.1757E+01
  -9.543  0.6397E+00  0.1764E+01
  -9.533  0.6397E+00  0.1770E+01
  -9.523  0.6396E+00  0.1776E+01
  -9.513  0.6396E+00  0.1783E+01
  -9.503  0.6394E+00  0.1789E+01
  -9.493  0.6392E+00  0.1796E+01
  -9.483  0.6390E+00  0.1802E+01
  -9.473  0.6386E+00  0.1808E+01
  -9.463  0.6382E+00  0.1815E+01
  -9.453  0.6377E+00  0.1821E+01
  -9.443  0.6372E+00  0.1828E+01
  -9.433  0.6368E+00  0.1834E+01
  -9.423  0.6363E+00  0.1840E+01
  -9.413  0.6360E+00  0.1847E+01
  -9.403  0.6356E+00  0.1853E+01
  -9.393  0.6354E+00  0.1859E+01
  -9.383  0.6351E+00  0.1866E+01
  -9.373  0.6350E+00  0.1872E+01
  -9.363  0.6349E+00  0.1878E+01
  -9.353  0.6349E+00  0.1885E+01
  -9.343  0.6350E+00  0.1891E+01
  -9.333  0.6351E+00  0.1897E+01
  -9.323  0.6352E+00  0.1904E+01
  -9.313  0.6353E+00  0.1910E+01
  -9.303  0.6354E+00  0.1917E+01
  -9.293  0.6356E+00  0.1923E+01
  -9.283  0.6357E+00  0.1929E+01
  -9.273  0.6359E+00  0.1936E+01
  -9.263  0.6361E+00  0.1942E+01
  -9.253  0.6363E+00  0.1948E+01
  -9.243  0.6365E+00  0.1955E+01
  -9.233  0.6367E+00  0.1961E+01
  -9.223  0.6369E+00  0.1967E+01
  -9.213  0.6372E+00  0.1974E+01
  -9.203  0.6374E+00  0.1980E+01
  -9.193  0.6377E+00  0.1987E+01
  -9.183  0.6380E+00  0.1993E+01
  -9.173  0.6382E+00  0.1999E+01
  -9.163  0.6385E+00  0.2006E+01
  -9.153  0.6388E+00  0.2012E+01
  -9.143  0.6391E+00  0.2018E+01
  -9.133  0.6394E+00  0.2025E+01
  -9.123  0.6397E+00  0.2031E+01
  -9.113  0.6400E+00  0.2038E+01
  -9.103  0.6403E+00  0.2044E+01
  -9.093  0.6407E+00  0.2050E+01
  -9.083  0.6411E+00  0.2057E+01
  -9.073  0.6414E+00  0.2063E+01
  -9.063  0.6418E+00  0.2070E+01
  -9.053  0.6423E+00  0.2076E+01
  -9.043  0.6427E+00  0.2083E+01
  -9.033  0.6432E+00  0.2089E+01
  -9.023  0.6436E+00  0.2095E+01
  -9.013  0.6441E+00  0.2102E+01
  -9.003  0.6445E+00  0.2108E+01
  -8.993  0.6449E+00  0.2115E+01
  -8.983  0.6454E+00  0.2121E+01
  -8.973  0.6458E+00  0.2128E+01
  -8.963  0.6463E+00  0.2134E+01
  -8.953  0.6467E+00  0.2141E+01
  -8.943  0.6472E+00  0.2147E+01
  -8.933  0.6476E+00  0.2153E+01
  -8.923  0.6481E+00  0.2160E+01
  -8.913  0.6485E+00  0.2166E+01
  -8.903  0.6489E+00  0.2173E+01
  -8.893  0.6494E+00  0.2179E+01
  -8.883  0.6498E+00  0.2186E+01
  -8.873  0.6503E+00  0.2192E+01
  -8.863  0.6507E+00  0.2199E+01
  -8.853  0.6512E+00  0.2205E+01
  -8.843  0.6516E+00  0.2212E+01
  -8.833  0.6521E+00  0.2218E+01
  -8.823  0.6525E+00  0.2225E+01
  -8.813  0.6530E+00  0.2232E+01
  -8.803  0.6534E+00  0.2238E+01
  -8.793  0.6539E+00  0.2245E+01
  -8.783  0.6544E+00  0.2251E+01
  -8.773  0.6549E+00  0.2258E+01
  -8.763  0.6553E+00  0.2264E+01
  -8.753  0.6558E+00  0.2271E+01
  -8.743  0.6563E+00  0.2277E+01
  -8.733  0.6568E+00  0.2284E+01
  -8.723  0.6569E+00  0.2290E+01
  -8.713  0.6568E+00  0.2297E+01
  -8.703  0.6569E+00  0.2304E+01
  -8.693  0.6571E+00  0.2310E+01
  -8.683  0.6572E+00  0.2317E+01
  -8.673  0.6574E+00  0.2323E+01
  -8.663  0.6575E+00  0.2330E+01
  -8.653  0.6577E+00  0.2336E+01
  -8.643  0.6578E+00  0.2343E+01
  -8.633  0.6580E+00  0.2350E+01
  -8.623  0.6578E+00  0.2356E+01
  -8.613  0.6580E+00  0.2363E+01
  -8.603  0.6583E+00  0.2369E+01
  -8.593  0.6586E+00  0.2376E+01
  -8.583  0.6589E+00  0.2383E+01
  -8.573  0.6592E+00  0.2389E+01
  -8.563  0.6588E+00  0.2396E+01
  -8.553  0.6589E+00  0.2402E+01
  -8.543  0.6590E+00  0.2409E+01
  -8.533  0.6591E+00  0.2415E+01
  -8.523  0.6591E+00  0.2422E+01
  -8.513  0.6592E+00  0.2429E+01
  -8.503  0.6592E+00  0.2435E+01
  -8.493  0.6592E+00  0.2442E+01
  -8.483  0.6592E+00  0.2448E+01
  -8.473  0.6589E+00  0.2455E+01
  -8.463  0.6587E+00  0.2462E+01
  -8.453  0.6589E+00  0.2468E+01
  -8.443  0.6592E+00  0.2475E+01
  -8.433  0.6594E+00  0.2481E+01
  -8.423  0.6597E+00  0.2488E+01
  -8.413  0.6600E+00  0.2495E+01
  -8.403  0.6602E+00  0.2501E+01
  -8.393  0.6605E+00  0.2508E+01
  -8.383  0.6608E+00  0.2514E+01
  -8.373  0.6611E+00  0.2521E+01
  -8.363  0.6614E+00  0.2528E+01
  -8.353  0.6617E+00  0.2534E+01
  -8.343  0.6621E+00  0.2541E+01
  -8.333  0.6624E+00  0.2547E+01
  -8.323  0.6628E+00  0.2554E+01
  -8.313  0.6632E+00  0.2561E+01
  -8.303  0.6636E+00  0.2567E+01
  -8.293  0.6641E+00  0.2574E+01
  -8.283  0.6645E+00  0.2581E+01
  -8.273  0.6650E+00  0.2587E+01
  -8.263  0.6655E+00  0.2594E+01
  -8.253  0.6661E+00  0.2601E+01
  -8.243  0.6666E+00  0.2607E+01
  -8.233  0.6671E+00  0.2614E+01
  -8.223  0.6677E+00  0.2621E+01
  -8.213  0.6682E+00  0.2627E+01
  -8.203  0.6687E+00  0.2634E+01
  -8.193  0.6693E+00  0.2641E+01
  -8.183  0.6698E+00  0.2647E+01
  -8.173  0.6703E+00  0.2654E+01
  -8.163  0.6709E+00  0.2661E+01
  -8.153  0.6714E+00  0.2667E+01
  -8.143  0.6719E+00  0.2674E+01
  -8.133  0.6725E+00  0.2681E+01
  -8.123  0.6731E+00  0.2688E+01
  -8.113  0.6739E+00  0.2694E+01
  -8.103  0.6747E+00  0.2701E+01
  -8.093  0.6755E+00  0.2708E+01
  -8.083  0.6764E+00  0.2715E+01
  -8.073  0.6773E+00  0.2721E+01
  -8.063  0.6783E+00  0.2728E+01
  -8.053  0.6793E+00  0.2735E+01
  -8.043  0.6803E+00  0.2742E+01
  -8.033  0.6815E+00  0.2749E+01
  -8.023  0.6826E+00  0.2755E+01
  -8.013  0.6838E+00  0.2762E+01
  -8.003  0.6849E+00  0.2769E+01
  -7.993  0.6861E+00  0.2776E+01
  -7.983  0.6873E+00  0.2783E+01
  -7.973  0.6886E+00  0.2790E+01
  -7.963  0.6900E+00  0.2797E+01
  -7.953  0.6913E+00  0.2803E+01
  -7.943  0.6928E+00  0.2810E+01
  -7.933  0.6943E+00  0.2817E+01
  -7.923  0.6958E+00  0.2824E+01
  -7.913  0.6974E+00  0.2831E+01
  -7.903  0.6991E+00  0.2838E+01
  -7.893  0.7009E+00  0.2845E+01
  -7.883  0.7028E+00  0.2852E+01
  -7.873  0.7048E+00  0.2859E+01
  -7.863  0.7068E+00  0.2866E+01
  -7.853  0.7087E+00  0.2873E+01
  -7.843  0.7107E+00  0.2881E+01
  -7.833  0.7126E+00  0.2888E+01
  -7.823  0.7146E+00  0.2895E+01
  -7.813  0.7166E+00  0.2902E+01
  -7.803  0.7185E+00  0.2909E+01
  -7.793  0.7205E+00  0.2916E+01
  -7.783  0.7225E+00  0.2924E+01
  -7.773  0.7244E+00  0.2931E+01
  -7.763  0.7264E+00  0.2938E+01
  -7.753  0.7284E+00  0.2945E+01
  -7.743  0.7303E+00  0.2953E+01
  -7.733  0.7323E+00  0.2960E+01
  -7.723  0.7342E+00  0.2967E+01
  -7.713  0.7362E+00  0.2975E+01
  -7.703  0.7382E+00  0.2982E+01
  -7.693  0.7401E+00  0.2989E+01
  -7.683  0.7421E+00  0.2997E+01
  -7.673  0.7441E+00  0.3004E+01
  -7.663  0.7460E+00  0.3012E+01
  -7.653  0.7480E+00  0.3019E+01
  -7.643  0.7500E+00  0.3027E+01
  -7.633  0.7519E+00  0.3034E+01
  -7.623  0.7539E+00  0.3042E+01
  -7.613  0.7558E+00  0.3049E+01
  -7.603  0.7577E+00  0.3057E+01
  -7.593  0.7597E+00  0.3064E+01
  -7.583  0.7616E+00  0.3072E+01
  -7.573  0.7912E+00  0.3080E+01
  -7.563  0.8041E+00  0.3088E+01
  -7.553  0.8148E+00  0.3096E+01
  -7.543  0.8252E+00  0.3104E+01
  -7.533  0.8323E+00  0.3112E+01
  -7.523  0.8390E+00  0.3121E+01
  -7.513  0.8455E+00  0.3129E+01
  -7.503  0.8517E+00  0.3138E+01
  -7.493  0.8694E+00  0.3146E+01
  -7.483  0.8673E+00  0.3155E+01
  -7.473  0.8652E+00  0.3163E+01
  -7.463  0.8633E+00  0.3172E+01
  -7.453  0.8614E+00  0.3181E+01
  -7.443  0.8817E+00  0.3190E+01
  -7.433  0.8866E+00  0.3198E+01
  -7.423  0.8910E+00  0.3207E+01
  -7.413  0.8953E+00  0.3216E+01
  -7.403  0.9004E+00  0.3225E+01
  -7.393  0.9079E+00  0.3234E+01
  -7.383  0.9149E+00  0.3243E+01
  -7.373  0.9253E+00  0.3252E+01
  -7.363  0.9507E+00  0.3262E+01
  -7.353  0.9433E+00  0.3271E+01
  -7.343  0.9361E+00  0.3281E+01
  -7.333  0.9290E+00  0.3290E+01
  -7.323  0.9222E+00  0.3299E+01
  -7.313  0.9155E+00  0.3309E+01
  -7.303  0.9088E+00  0.3318E+01
  -7.293  0.9726E+00  0.3327E+01
  -7.283  0.1006E+01  0.3337E+01
  -7.273  0.1024E+01  0.3347E+01
  -7.263  0.1040E+01  0.3357E+01
  -7.253  0.1045E+01  0.3368E+01
  -7.243  0.1048E+01  0.3378E+01
  -7.233  0.1050E+01  0.3389E+01
  -7.223  0.1050E+01  0.3399E+01
  -7.213  0.1082E+01  0.3410E+01
  -7.203  0.1053E+01  0.3421E+01
  -7.193  0.1024E+01  0.3431E+01
  -7.183  0.9952E+00  0.3441E+01
  -7.173  0.9661E+00  0.3451E+01
  -7.163  0.1015E+01  0.3461E+01
  -7.153  0.1006E+01  0.3471E+01
  -7.143  0.9951E+00  0.3481E+01
  -7.133  0.9824E+00  0.3491E+01
  -7.123  0.9771E+00  0.3501E+01
  -7.113  0.9745E+00  0.3511E+01
  -7.103  0.9684E+00  0.3520E+01
  -7.093  0.1013E+01  0.3530E+01
  -7.083  0.1010E+01  0.3541E+01
  -7.073  0.9496E+00  0.3550E+01
  -7.063  0.8926E+00  0.3560E+01
  -7.053  0.8384E+00  0.3568E+01
  -7.043  0.7867E+00  0.3576E+01
  -7.033  0.7384E+00  0.3584E+01
  -7.023  0.6933E+00  0.3591E+01
  -7.013  0.6481E+00  0.3598E+01
  -7.003  0.6054E+00  0.3604E+01
  -6.993  0.5688E+00  0.3610E+01
  -6.983  0.5368E+00  0.3615E+01
  -6.973  0.5122E+00  0.3621E+01
  -6.963  0.5017E+00  0.3626E+01
  -6.953  0.4975E+00  0.3631E+01
  -6.943  0.4934E+00  0.3636E+01
  -6.933  0.4893E+00  0.3641E+01
  -6.923  0.4851E+00  0.3645E+01
  -6.913  0.4810E+00  0.3650E+01
  -6.903  0.4769E+00  0.3655E+01
  -6.893  0.4727E+00  0.3660E+01
  -6.883  0.4686E+00  0.3665E+01
  -6.873  0.4645E+00  0.3669E+01
  -6.863  0.4604E+00  0.3674E+01
  -6.853  0.4562E+00  0.3678E+01
  -6.843  0.4521E+00  0.3683E+01
  -6.833  0.4480E+00  0.3687E+01
  -6.823  0.4438E+00  0.3692E+01
  -6.813  0.4397E+00  0.3696E+01
  -6.803  0.4356E+00  0.3701E+01
  -6.793  0.4314E+00  0.3705E+01
  -6.783  0.4273E+00  0.3709E+01
  -6.773  0.4232E+00  0.3714E+01
  -6.763  0.4190E+00  0.3718E+01
  -6.753  0.4149E+00  0.3722E+01
  -6.743  0.4108E+00  0.3726E+01
  -6.733  0.4066E+00  0.3730E+01
  -6.723  0.4025E+00  0.3734E+01
  -6.713  0.3984E+00  0.3738E+01
  -6.703  0.3942E+00  0.3742E+01
  -6.693  0.3901E+00  0.3746E+01
  -6.683  0.3860E+00  0.3750E+01
  -6.673  0.3818E+00  0.3754E+01
  -6.663  0.3777E+00  0.3758E+01
  -6.653  0.3736E+00  0.3761E+01
  -6.643  0.3694E+00  0.3765E+01
  -6.633  0.3653E+00  0.3769E+01
  -6.623  0.3612E+00  0.3772E+01
  -6.613  0.3570E+00  0.3776E+01
  -6.603  0.3529E+00  0.3780E+01
  -6.593  0.3488E+00  0.3783E+01
  -6.583  0.3446E+00  0.3787E+01
  -6.573  0.3405E+00  0.3790E+01
  -6.563  0.3364E+00  0.3793E+01
  -6.553  0.3322E+00  0.3797E+01
  -6.543  0.3346E+00  0.3800E+01
  -6.533  0.3586E+00  0.3803E+01
  -6.523  0.3935E+00  0.3807E+01
  -6.513  0.4369E+00  0.3811E+01
  -6.503  0.4864E+00  0.3816E+01
  -6.493  0.5441E+00  0.3821E+01
  -6.483  0.6069E+00  0.3827E+01
  -6.473  0.6301E+00  0.3833E+01
  -6.463  0.5186E+00  0.3839E+01
  -6.453  0.4966E+00  0.3844E+01
  -6.443  0.4718E+00  0.3849E+01
  -6.433  0.4599E+00  0.3853E+01
  -6.423  0.4605E+00  0.3858E+01
  -6.413  0.4582E+00  0.3863E+01
  -6.403  0.4523E+00  0.3867E+01
  -6.393  0.3965E+00  0.3871E+01
  -6.383  0.4184E+00  0.3875E+01
  -6.373  0.4402E+00  0.3880E+01
  -6.363  0.4619E+00  0.3884E+01
  -6.353  0.4120E+00  0.3889E+01
  -6.343  0.3999E+00  0.3893E+01
  -6.333  0.3861E+00  0.3897E+01
  -6.323  0.3708E+00  0.3900E+01
  -6.313  0.3501E+00  0.3904E+01
  -6.303  0.3238E+00  0.3907E+01
  -6.293  0.2957E+00  0.3910E+01
  -6.283  0.2261E+00  0.3913E+01
  -6.273  0.2040E+00  0.3915E+01
  -6.263  0.2015E+00  0.3917E+01
  -6.253  0.1991E+00  0.3919E+01
  -6.243  0.1966E+00  0.3921E+01
  -6.233  0.1941E+00  0.3923E+01
  -6.223  0.1917E+00  0.3925E+01
  -6.213  0.1892E+00  0.3927E+01
  -6.203  0.1868E+00  0.3929E+01
  -6.193  0.1843E+00  0.3931E+01
  -6.183  0.1819E+00  0.3932E+01
  -6.173  0.1794E+00  0.3934E+01
  -6.163  0.1769E+00  0.3936E+01
  -6.153  0.1745E+00  0.3938E+01
  -6.143  0.1720E+00  0.3940E+01
  -6.133  0.1696E+00  0.3941E+01
  -6.123  0.1671E+00  0.3943E+01
  -6.113  0.1647E+00  0.3945E+01
  -6.103  0.1659E+00  0.3946E+01
  -6.093  0.1711E+00  0.3948E+01
  -6.083  0.1789E+00  0.3950E+01
  -6.073  0.1878E+00  0.3952E+01
  -6.063  0.1972E+00  0.3953E+01
  -6.053  0.2083E+00  0.3955E+01
  -6.043  0.2205E+00  0.3958E+01
  -6.033  0.2340E+00  0.3960E+01
  -6.023  0.2488E+00  0.3962E+01
  -6.013  0.2660E+00  0.3965E+01
  -6.003  0.2837E+00  0.3968E+01
  -5.993  0.3014E+00  0.3971E+01
  -5.983  0.3192E+00  0.3974E+01
  -5.973  0.3369E+00  0.3977E+01
  -5.963  0.3546E+00  0.3980E+01
  -5.953  0.3723E+00  0.3984E+01
  -5.943  0.3901E+00  0.3988E+01
  -5.933  0.4078E+00  0.3992E+01
  -5.923  0.4255E+00  0.3996E+01
  -5.913  0.4432E+00  0.4000E+01
  -5.903  0.4609E+00  0.4005E+01
  -5.893  0.4786E+00  0.4010E+01
  -5.883  0.4963E+00  0.4014E+01
  -5.873  0.5140E+00  0.4019E+01
  -5.863  0.5318E+00  0.4025E+01
  -5.853  0.5495E+00  0.4030E+01
  -5.843  0.5672E+00  0.4036E+01
  -5.833  0.5849E+00  0.4041E+01
  -5.823  0.6026E+00  0.4047E+01
  -5.813  0.6203E+00  0.4053E+01
  -5.803  0.6010E+00  0.4060E+01
  -5.793  0.5866E+00  0.4066E+01
  -5.783  0.5801E+00  0.4071E+01
  -5.773  0.5756E+00  0.4077E+01
  -5.763  0.5748E+00  0.4083E+01
  -5.753  0.5734E+00  0.4089E+01
  -5.743  0.5715E+00  0.4094E+01
  -5.733  0.5570E+00  0.4100E+01
  -5.723  0.5662E+00  0.4106E+01
  -5.713  0.5755E+00  0.4111E+01
  -5.703  0.5848E+00  0.4117E+01
  -5.693  0.5643E+00  0.4123E+01
  -5.683  0.5613E+00  0.4128E+01
  -5.673  0.5578E+00  0.4134E+01
  -5.663  0.5539E+00  0.4140E+01
  -5.653  0.5458E+00  0.4145E+01
  -5.643  0.5368E+00  0.4150E+01
  -5.633  0.5221E+00  0.4156E+01
  -5.623  0.4944E+00  0.4161E+01
  -5.613  0.4973E+00  0.4166E+01
  -5.603  0.5003E+00  0.4171E+01
  -5.593  0.5100E+00  0.4176E+01
  -5.583  0.6207E+00  0.4181E+01
  -5.573  0.7659E+00  0.4188E+01
  -5.563  0.9237E+00  0.4197E+01
  -5.553  0.1083E+01  0.4207E+01
  -5.543  0.1016E+01  0.4218E+01
  -5.533  0.9179E+00  0.4227E+01
  -5.523  0.8862E+00  0.4236E+01
  -5.513  0.8740E+00  0.4245E+01
  -5.503  0.8850E+00  0.4254E+01
  -5.493  0.8897E+00  0.4263E+01
  -5.483  0.7959E+00  0.4272E+01
  -5.473  0.8402E+00  0.4280E+01
  -5.463  0.8845E+00  0.4288E+01
  -5.453  0.9287E+00  0.4297E+01
  -5.443  0.8856E+00  0.4307E+01
  -5.433  0.8787E+00  0.4316E+01
  -5.423  0.8688E+00  0.4324E+01
  -5.413  0.8556E+00  0.4333E+01
  -5.403  0.8352E+00  0.4341E+01
  -5.393  0.8077E+00  0.4350E+01
  -5.383  0.7768E+00  0.4358E+01
  -5.373  0.6603E+00  0.4365E+01
  -5.363  0.6649E+00  0.4371E+01
  -5.353  0.6742E+00  0.4378E+01
  -5.343  0.6837E+00  0.4385E+01
  -5.333  0.6936E+00  0.4392E+01
  -5.323  0.7038E+00  0.4399E+01
  -5.313  0.7145E+00  0.4406E+01
  -5.303  0.7261E+00  0.4413E+01
  -5.293  0.7382E+00  0.4420E+01
  -5.283  0.7502E+00  0.4428E+01
  -5.273  0.7623E+00  0.4435E+01
  -5.263  0.7744E+00  0.4443E+01
  -5.253  0.7865E+00  0.4451E+01
  -5.243  0.7985E+00  0.4459E+01
  -5.233  0.8106E+00  0.4467E+01
  -5.223  0.8227E+00  0.4475E+01
  -5.213  0.8347E+00  0.4483E+01
  -5.203  0.8468E+00  0.4492E+01
  -5.193  0.8589E+00  0.4500E+01
  -5.183  0.8710E+00  0.4509E+01
  -5.173  0.8830E+00  0.4518E+01
  -5.163  0.8951E+00  0.4527E+01
  -5.153  0.9072E+00  0.4536E+01
  -5.143  0.9193E+00  0.4545E+01
  -5.133  0.9313E+00  0.4554E+01
  -5.123  0.9434E+00  0.4563E+01
  -5.113  0.9555E+00  0.4573E+01
  -5.103  0.9676E+00  0.4582E+01
  -5.093  0.9796E+00  0.4592E+01
  -5.083  0.9917E+00  0.4602E+01
  -5.073  0.1004E+01  0.4612E+01
  -5.063  0.1016E+01  0.4622E+01
  -5.053  0.1028E+01  0.4632E+01
  -5.043  0.1040E+01  0.4643E+01
  -5.033  0.1052E+01  0.4653E+01
  -5.023  0.1064E+01  0.4664E+01
  -5.013  0.1076E+01  0.4674E+01
  -5.003  0.1089E+01  0.4685E+01
  -4.993  0.1101E+01  0.4696E+01
  -4.983  0.1113E+01  0.4707E+01
  -4.973  0.1126E+01  0.4718E+01
  -4.963  0.1139E+01  0.4730E+01
  -4.953  0.1151E+01  0.4741E+01
  -4.943  0.1122E+01  0.4753E+01
  -4.933  0.1068E+01  0.4764E+01
  -4.923  0.1035E+01  0.4774E+01
  -4.913  0.1015E+01  0.4784E+01
  -4.903  0.9940E+00  0.4794E+01
  -4.893  0.9509E+00  0.4804E+01
  -4.883  0.9560E+00  0.4814E+01
  -4.873  0.9610E+00  0.4823E+01
  -4.863  0.9175E+00  0.4833E+01
  -4.853  0.8955E+00  0.4842E+01
  -4.843  0.8726E+00  0.4851E+01
  -4.833  0.8380E+00  0.4859E+01
  -4.823  0.7953E+00  0.4867E+01
  -4.813  0.7343E+00  0.4875E+01
  -4.803  0.7326E+00  0.4882E+01
  -4.793  0.7308E+00  0.4889E+01
  -4.783  0.7291E+00  0.4897E+01
  -4.773  0.7273E+00  0.4904E+01
  -4.763  0.7256E+00  0.4911E+01
  -4.753  0.7238E+00  0.4919E+01
  -4.743  0.7221E+00  0.4926E+01
  -4.733  0.7203E+00  0.4933E+01
  -4.723  0.7186E+00  0.4940E+01
  -4.713  0.7168E+00  0.4947E+01
  -4.703  0.7151E+00  0.4955E+01
  -4.693  0.7133E+00  0.4962E+01
  -4.683  0.7116E+00  0.4969E+01
  -4.673  0.7098E+00  0.4976E+01
  -4.663  0.7080E+00  0.4983E+01
  -4.653  0.7063E+00  0.4990E+01
  -4.643  0.7045E+00  0.4997E+01
  -4.633  0.7028E+00  0.5004E+01
  -4.623  0.7010E+00  0.5011E+01
  -4.613  0.6993E+00  0.5018E+01
  -4.603  0.6975E+00  0.5025E+01
  -4.593  0.6958E+00  0.5032E+01
  -4.583  0.6940E+00  0.5039E+01
  -4.573  0.6923E+00  0.5046E+01
  -4.563  0.6906E+00  0.5053E+01
  -4.553  0.6888E+00  0.5060E+01
  -4.543  0.6872E+00  0.5067E+01
  -4.533  0.6855E+00  0.5074E+01
  -4.523  0.6838E+00  0.5080E+01
  -4.513  0.6821E+00  0.5087E+01
  -4.503  0.6804E+00  0.5094E+01
  -4.493  0.6787E+00  0.5101E+01
  -4.483  0.6770E+00  0.5108E+01
  -4.473  0.6753E+00  0.5114E+01
  -4.463  0.6736E+00  0.5121E+01
  -4.453  0.6718E+00  0.5128E+01
  -4.443  0.6701E+00  0.5135E+01
  -4.433  0.6683E+00  0.5141E+01
  -4.423  0.6665E+00  0.5148E+01
  -4.413  0.6647E+00  0.5155E+01
  -4.403  0.6628E+00  0.5161E+01
  -4.393  0.6609E+00  0.5168E+01
  -4.383  0.6590E+00  0.5174E+01
  -4.373  0.6571E+00  0.5181E+01
  -4.363  0.6552E+00  0.5188E+01
  -4.353  0.6533E+00  0.5194E+01
  -4.343  0.6514E+00  0.5201E+01
  -4.333  0.6495E+00  0.5207E+01
  -4.323  0.6476E+00  0.5214E+01
  -4.313  0.6457E+00  0.5220E+01
  -4.303  0.6437E+00  0.5227E+01
  -4.293  0.6418E+00  0.5233E+01
  -4.283  0.6399E+00  0.5239E+01
  -4.273  0.6380E+00  0.5246E+01
  -4.263  0.6361E+00  0.5252E+01
  -4.253  0.6343E+00  0.5258E+01
  -4.243  0.6324E+00  0.5265E+01
  -4.233  0.6305E+00  0.5271E+01
  -4.223  0.6286E+00  0.5277E+01
  -4.213  0.6267E+00  0.5284E+01
  -4.203  0.6248E+00  0.5290E+01
  -4.193  0.6230E+00  0.5296E+01
  -4.183  0.6211E+00  0.5302E+01
  -4.173  0.6192E+00  0.5309E+01
  -4.163  0.6173E+00  0.5315E+01
  -4.153  0.6155E+00  0.5321E+01
  -4.143  0.6136E+00  0.5327E+01
  -4.133  0.6117E+00  0.5333E+01
  -4.123  0.6099E+00  0.5339E+01
  -4.113  0.6080E+00  0.5345E+01
  -4.103  0.6061E+00  0.5352E+01
  -4.093  0.6043E+00  0.5358E+01
  -4.083  0.6024E+00  0.5364E+01
  -4.073  0.6006E+00  0.5370E+01
  -4.063  0.5987E+00  0.5376E+01
  -4.053  0.5968E+00  0.5382E+01
  -4.043  0.5950E+00  0.5388E+01
  -4.033  0.5931E+00  0.5393E+01
  -4.023  0.5912E+00  0.5399E+01
  -4.013  0.5893E+00  0.5405E+01
  -4.003  0.5874E+00  0.5411E+01
  -3.993  0.5856E+00  0.5417E+01
  -3.983  0.5837E+00  0.5423E+01
  -3.973  0.5818E+00  0.5429E+01
  -3.963  0.5799E+00  0.5435E+01
  -3.953  0.5780E+00  0.5440E+01
  -3.943  0.5760E+00  0.5446E+01
  -3.933  0.5741E+00  0.5452E+01
  -3.923  0.5722E+00  0.5458E+01
  -3.913  0.5703E+00  0.5463E+01
  -3.903  0.5683E+00  0.5469E+01
  -3.893  0.5664E+00  0.5475E+01
  -3.883  0.5644E+00  0.5480E+01
  -3.873  0.5624E+00  0.5486E+01
  -3.863  0.5605E+00  0.5492E+01
  -3.853  0.5588E+00  0.5497E+01
  -3.843  0.5573E+00  0.5503E+01
  -3.833  0.5559E+00  0.5508E+01
  -3.823  0.5546E+00  0.5514E+01
  -3.813  0.5535E+00  0.5519E+01
  -3.803  0.5524E+00  0.5525E+01
  -3.793  0.5515E+00  0.5530E+01
  -3.783  0.5507E+00  0.5536E+01
  -3.773  0.5502E+00  0.5541E+01
  -3.763  0.5499E+00  0.5547E+01
  -3.753  0.5495E+00  0.5552E+01
  -3.743  0.5491E+00  0.5558E+01
  -3.733  0.5488E+00  0.5563E+01
  -3.723  0.5484E+00  0.5569E+01
  -3.713  0.5481E+00  0.5574E+01
  -3.703  0.5477E+00  0.5580E+01
  -3.693  0.5473E+00  0.5585E+01
  -3.683  0.5470E+00  0.5591E+01
  -3.673  0.5466E+00  0.5596E+01
  -3.663  0.5463E+00  0.5602E+01
  -3.653  0.5459E+00  0.5607E+01
  -3.643  0.5455E+00  0.5613E+01
  -3.633  0.5452E+00  0.5618E+01
  -3.623  0.5448E+00  0.5624E+01
  -3.613  0.5445E+00  0.5629E+01
  -3.603  0.5441E+00  0.5634E+01
  -3.593  0.5437E+00  0.5640E+01
  -3.583  0.5434E+00  0.5645E+01
  -3.573  0.5430E+00  0.5651E+01
  -3.563  0.5427E+00  0.5656E+01
  -3.553  0.5423E+00  0.5662E+01
  -3.543  0.5419E+00  0.5667E+01
  -3.533  0.5416E+00  0.5672E+01
  -3.523  0.5412E+00  0.5678E+01
  -3.513  0.5416E+00  0.5683E+01
  -3.503  0.5461E+00  0.5689E+01
  -3.493  0.5508E+00  0.5694E+01
  -3.483  0.5556E+00  0.5700E+01
  -3.473  0.5603E+00  0.5705E+01
  -3.463  0.5651E+00  0.5711E+01
  -3.453  0.5698E+00  0.5717E+01
  -3.443  0.5746E+00  0.5722E+01
  -3.433  0.5793E+00  0.5728E+01
  -3.423  0.5841E+00  0.5734E+01
  -3.413  0.5888E+00  0.5740E+01
  -3.403  0.5936E+00  0.5746E+01
  -3.393  0.5983E+00  0.5752E+01
  -3.383  0.6031E+00  0.5758E+01
  -3.373  0.6079E+00  0.5764E+01
  -3.363  0.6126E+00  0.5770E+01
  -3.353  0.6173E+00  0.5776E+01
  -3.343  0.6221E+00  0.5782E+01
  -3.333  0.6268E+00  0.5788E+01
  -3.323  0.6316E+00  0.5795E+01
  -3.313  0.6363E+00  0.5801E+01
  -3.303  0.6410E+00  0.5807E+01
  -3.293  0.6458E+00  0.5814E+01
  -3.283  0.6505E+00  0.5820E+01
  -3.273  0.6552E+00  0.5827E+01
  -3.263  0.6600E+00  0.5833E+01
  -3.253  0.6647E+00  0.5840E+01
  -3.243  0.6694E+00  0.5847E+01
  -3.233  0.6741E+00  0.5853E+01
  -3.223  0.6789E+00  0.5860E+01
  -3.213  0.6836E+00  0.5867E+01
  -3.203  0.6883E+00  0.5874E+01
  -3.193  0.6930E+00  0.5881E+01
  -3.183  0.6977E+00  0.5888E+01
  -3.173  0.7024E+00  0.5895E+01
  -3.163  0.7071E+00  0.5902E+01
  -3.153  0.7118E+00  0.5909E+01
  -3.143  0.7165E+00  0.5916E+01
  -3.133  0.7213E+00  0.5923E+01
  -3.123  0.7260E+00  0.5930E+01
  -3.113  0.7307E+00  0.5938E+01
  -3.103  0.7267E+00  0.5945E+01
  -3.093  0.7264E+00  0.5952E+01
  -3.083  0.7267E+00  0.5960E+01
  -3.073  0.7281E+00  0.5967E+01
  -3.063  0.7294E+00  0.5974E+01
  -3.053  0.7299E+00  0.5981E+01
  -3.043  0.7346E+00  0.5989E+01
  -3.033  0.7348E+00  0.5996E+01
  -3.023  0.7364E+00  0.6003E+01
  -3.013  0.7381E+00  0.6011E+01
  -3.003  0.7387E+00  0.6018E+01
  -2.993  0.7385E+00  0.6026E+01
  -2.983  0.7370E+00  0.6033E+01
  -2.973  0.7418E+00  0.6040E+01
  -2.963  0.7467E+00  0.6048E+01
  -2.953  0.7515E+00  0.6055E+01
  -2.943  0.7564E+00  0.6063E+01
  -2.933  0.7612E+00  0.6070E+01
  -2.923  0.7661E+00  0.6078E+01
  -2.913  0.7656E+00  0.6086E+01
  -2.903  0.7587E+00  0.6093E+01
  -2.893  0.7564E+00  0.6101E+01
  -2.883  0.7555E+00  0.6109E+01
  -2.873  0.7528E+00  0.6116E+01
  -2.863  0.7549E+00  0.6124E+01
  -2.853  0.7545E+00  0.6131E+01
  -2.843  0.7544E+00  0.6139E+01
  -2.833  0.7542E+00  0.6146E+01
  -2.823  0.7537E+00  0.6154E+01
  -2.813  0.7525E+00  0.6161E+01
  -2.803  0.7518E+00  0.6169E+01
  -2.793  0.7517E+00  0.6176E+01
  -2.783  0.7516E+00  0.6184E+01
  -2.773  0.7515E+00  0.6191E+01
  -2.763  0.7514E+00  0.6199E+01
  -2.753  0.7513E+00  0.6206E+01
  -2.743  0.7512E+00  0.6214E+01
  -2.733  0.7510E+00  0.6221E+01
  -2.723  0.7509E+00  0.6229E+01
  -2.713  0.7508E+00  0.6236E+01
  -2.703  0.7507E+00  0.6244E+01
  -2.693  0.7506E+00  0.6251E+01
  -2.683  0.7505E+00  0.6259E+01
  -2.673  0.7504E+00  0.6266E+01
  -2.663  0.7503E+00  0.6274E+01
  -2.653  0.7501E+00  0.6281E+01
  -2.643  0.7500E+00  0.6289E+01
  -2.633  0.7499E+00  0.6296E+01
  -2.623  0.7498E+00  0.6304E+01
  -2.613  0.7497E+00  0.6311E+01
  -2.603  0.7496E+00  0.6319E+01
  -2.593  0.7495E+00  0.6326E+01
  -2.583  0.7494E+00  0.6334E+01
  -2.573  0.7492E+00  0.6341E+01
  -2.563  0.7491E+00  0.6349E+01
  -2.553  0.7490E+00  0.6356E+01
  -2.543  0.7489E+00  0.6364E+01
  -2.533  0.7488E+00  0.6371E+01
  -2.523  0.7487E+00  0.6379E+01
  -2.513  0.7486E+00  0.6386E+01
  -2.503  0.7484E+00  0.6394E+01
  -2.493  0.7483E+00  0.6401E+01
  -2.483  0.7482E+00  0.6409E+01
  -2.473  0.7481E+00  0.6416E+01
  -2.463  0.7480E+00  0.6424E+01
  -2.453  0.7478E+00  0.6431E+01
  -2.443  0.7477E+00  0.6439E+01
  -2.433  0.7476E+00  0.6446E+01
  -2.423  0.7475E+00  0.6454E+01
  -2.413  0.7473E+00  0.6461E+01
  -2.403  0.7471E+00  0.6469E+01
  -2.393  0.7467E+00  0.6476E+01
  -2.383  0.7464E+00  0.6484E+01
  -2.373  0.7460E+00  0.6491E+01
  -2.363  0.7455E+00  0.6498E+01
  -2.353  0.7450E+00  0.6506E+01
  -2.343  0.7446E+00  0.6513E+01
  -2.333  0.7446E+00  0.6521E+01
  -2.323  0.7446E+00  0.6528E+01
  -2.313  0.7447E+00  0.6536E+01
  -2.303  0.7450E+00  0.6543E+01
  -2.293  0.7454E+00  0.6551E+01
  -2.283  0.7459E+00  0.6558E+01
  -2.273  0.7465E+00  0.6566E+01
  -2.263  0.7471E+00  0.6573E+01
  -2.253  0.7477E+00  0.6580E+01
  -2.243  0.7484E+00  0.6588E+01
  -2.233  0.7490E+00  0.6595E+01
  -2.223  0.7496E+00  0.6603E+01
  -2.213  0.7502E+00  0.6610E+01
  -2.203  0.7508E+00  0.6618E+01
  -2.193  0.7514E+00  0.6625E+01
  -2.183  0.7521E+00  0.6633E+01
  -2.173  0.7527E+00  0.6641E+01
  -2.163  0.7533E+00  0.6648E+01
  -2.153  0.7539E+00  0.6656E+01
  -2.143  0.7545E+00  0.6663E+01
  -2.133  0.7551E+00  0.6671E+01
  -2.123  0.7558E+00  0.6678E+01
  -2.113  0.7564E+00  0.6686E+01
  -2.103  0.7570E+00  0.6693E+01
  -2.093  0.7576E+00  0.6701E+01
  -2.083  0.7582E+00  0.6709E+01
  -2.073  0.7588E+00  0.6716E+01
  -2.063  0.7595E+00  0.6724E+01
  -2.053  0.7601E+00  0.6731E+01
  -2.043  0.7607E+00  0.6739E+01
  -2.033  0.7613E+00  0.6746E+01
  -2.023  0.7619E+00  0.6754E+01
  -2.013  0.7625E+00  0.6762E+01
  -2.003  0.7632E+00  0.6769E+01
  -1.993  0.7638E+00  0.6777E+01
  -1.983  0.7644E+00  0.6785E+01
  -1.973  0.7650E+00  0.6792E+01
  -1.963  0.7656E+00  0.6800E+01
  -1.953  0.7662E+00  0.6808E+01
  -1.943  0.7669E+00  0.6815E+01
  -1.933  0.7675E+00  0.6823E+01
  -1.923  0.7681E+00  0.6831E+01
  -1.913  0.7687E+00  0.6838E+01
  -1.903  0.7693E+00  0.6846E+01
  -1.893  0.7699E+00  0.6854E+01
  -1.883  0.7706E+00  0.6861E+01
  -1.873  0.7712E+00  0.6869E+01
  -1.863  0.7718E+00  0.6877E+01
  -1.853  0.7724E+00  0.6885E+01
  -1.843  0.7730E+00  0.6892E+01
  -1.833  0.7736E+00  0.6900E+01
  -1.823  0.7743E+00  0.6908E+01
  -1.813  0.7749E+00  0.6915E+01
  -1.803  0.7755E+00  0.6923E+01
  -1.793  0.7761E+00  0.6931E+01
  -1.783  0.7769E+00  0.6939E+01
  -1.773  0.7778E+00  0.6947E+01
  -1.763  0.7788E+00  0.6954E+01
  -1.753  0.7800E+00  0.6962E+01
  -1.743  0.7812E+00  0.6970E+01
  -1.733  0.7826E+00  0.6978E+01
  -1.723  0.7841E+00  0.6986E+01
  -1.713  0.7858E+00  0.6993E+01
  -1.703  0.7876E+00  0.7001E+01
  -1.693  0.7894E+00  0.7009E+01
  -1.683  0.7912E+00  0.7017E+01
  -1.673  0.7931E+00  0.7025E+01
  -1.663  0.7951E+00  0.7033E+01
  -1.653  0.7971E+00  0.7041E+01
  -1.643  0.7990E+00  0.7049E+01
  -1.633  0.8008E+00  0.7057E+01
  -1.623  0.8024E+00  0.7065E+01
  -1.613  0.8039E+00  0.7073E+01
  -1.603  0.8053E+00  0.7081E+01
  -1.593  0.8066E+00  0.7089E+01
  -1.583  0.8079E+00  0.7097E+01
  -1.573  0.8091E+00  0.7105E+01
  -1.563  0.8101E+00  0.7113E+01
  -1.553  0.8117E+00  0.7121E+01
  -1.543  0.8142E+00  0.7130E+01
  -1.533  0.8174E+00  0.7138E+01
  -1.523  0.8215E+00  0.7146E+01
  -1.513  0.8267E+00  0.7154E+01
  -1.503  0.8329E+00  0.7162E+01
  -1.493  0.8400E+00  0.7171E+01
  -1.483  0.8482E+00  0.7179E+01
  -1.473  0.8574E+00  0.7188E+01
  -1.463  0.8671E+00  0.7196E+01
  -1.453  0.8772E+00  0.7205E+01
  -1.443  0.8877E+00  0.7214E+01
  -1.433  0.8981E+00  0.7223E+01
  -1.423  0.9022E+00  0.7232E+01
  -1.413  0.9057E+00  0.7241E+01
  -1.403  0.9086E+00  0.7250E+01
  -1.393  0.9110E+00  0.7259E+01
  -1.383  0.9127E+00  0.7268E+01
  -1.373  0.9139E+00  0.7277E+01
  -1.363  0.9145E+00  0.7286E+01
  -1.353  0.9145E+00  0.7296E+01
  -1.343  0.9148E+00  0.7305E+01
  -1.333  0.9184E+00  0.7314E+01
  -1.323  0.9220E+00  0.7323E+01
  -1.313  0.9257E+00  0.7332E+01
  -1.303  0.9294E+00  0.7342E+01
  -1.293  0.9331E+00  0.7351E+01
  -1.283  0.9369E+00  0.7360E+01
  -1.273  0.9407E+00  0.7370E+01
  -1.263  0.9445E+00  0.7379E+01
  -1.253  0.9483E+00  0.7389E+01
  -1.243  0.9522E+00  0.7398E+01
  -1.233  0.9561E+00  0.7408E+01
  -1.223  0.9600E+00  0.7417E+01
  -1.213  0.9655E+00  0.7427E+01
  -1.203  0.9756E+00  0.7437E+01
  -1.193  0.9828E+00  0.7446E+01
  -1.183  0.9894E+00  0.7456E+01
  -1.173  0.9961E+00  0.7466E+01
  -1.163  0.9995E+00  0.7476E+01
  -1.153  0.1008E+01  0.7486E+01
  -1.143  0.1014E+01  0.7496E+01
  -1.133  0.1020E+01  0.7506E+01
  -1.123  0.1030E+01  0.7517E+01
  -1.113  0.1032E+01  0.7527E+01
  -1.103  0.1034E+01  0.7537E+01
  -1.093  0.1035E+01  0.7548E+01
  -1.083  0.1037E+01  0.7558E+01
  -1.073  0.1039E+01  0.7568E+01
  -1.063  0.1041E+01  0.7579E+01
  -1.053  0.1043E+01  0.7589E+01
  -1.043  0.1045E+01  0.7600E+01
  -1.033  0.1046E+01  0.7610E+01
  -1.023  0.1048E+01  0.7621E+01
  -1.013  0.1050E+01  0.7631E+01
  -1.003  0.1053E+01  0.7642E+01
  -0.993  0.1055E+01  0.7652E+01
  -0.983  0.1057E+01  0.7663E+01
  -0.973  0.1059E+01  0.7673E+01
  -0.963  0.1062E+01  0.7684E+01
  -0.953  0.1064E+01  0.7694E+01
  -0.943  0.1067E+01  0.7705E+01
  -0.933  0.1070E+01  0.7716E+01
  -0.923  0.1072E+01  0.7727E+01
  -0.913  0.1075E+01  0.7737E+01
  -0.903  0.1077E+01  0.7748E+01
  -0.893  0.1080E+01  0.7759E+01
  -0.883  0.1082E+01  0.7770E+01
  -0.873  0.1085E+01  0.7780E+01
  -0.863  0.1088E+01  0.7791E+01
  -0.853  0.1090E+01  0.7802E+01
  -0.843  0.1093E+01  0.7813E+01
  -0.833  0.1095E+01  0.7824E+01
  -0.823  0.1101E+01  0.7835E+01
  -0.813  0.1108E+01  0.7846E+01
  -0.803  0.1115E+01  0.7857E+01
  -0.793  0.1121E+01  0.7868E+01
  -0.783  0.1132E+01  0.7880E+01
  -0.773  0.1138E+01  0.7891E+01
  -0.763  0.1142E+01  0.7902E+01
  -0.753  0.1145E+01  0.7914E+01
  -0.743  0.1152E+01  0.7925E+01
  -0.733  0.1155E+01  0.7937E+01
  -0.723  0.1160E+01  0.7948E+01
  -0.713  0.1163E+01  0.7960E+01
  -0.703  0.1165E+01  0.7972E+01
  -0.693  0.1138E+01  0.7983E+01
  -0.683  0.1142E+01  0.7994E+01
  -0.673  0.1145E+01  0.8006E+01
  -0.663  0.1148E+01  0.8017E+01
  -0.653  0.1152E+01  0.8029E+01
  -0.643  0.1154E+01  0.8040E+01
  -0.633  0.1157E+01  0.8052E+01
  -0.623  0.1159E+01  0.8064E+01
  -0.613  0.1162E+01  0.8075E+01
  -0.603  0.1164E+01  0.8087E+01
  -0.593  0.1167E+01  0.8098E+01
  -0.583  0.1169E+01  0.8110E+01
  -0.573  0.1172E+01  0.8122E+01
  -0.563  0.1174E+01  0.8134E+01
  -0.553  0.1177E+01  0.8145E+01
  -0.543  0.1184E+01  0.8157E+01
  -0.533  0.1191E+01  0.8169E+01
  -0.523  0.1198E+01  0.8181E+01
  -0.513  0.1204E+01  0.8193E+01
  -0.503  0.1211E+01  0.8205E+01
  -0.493  0.1216E+01  0.8217E+01
  -0.483  0.1224E+01  0.8229E+01
  -0.473  0.1231E+01  0.8242E+01
  -0.463  0.1239E+01  0.8254E+01
  -0.453  0.1249E+01  0.8266E+01
  -0.443  0.1257E+01  0.8279E+01
  -0.433  0.1262E+01  0.8292E+01
  -0.423  0.1267E+01  0.8304E+01
  -0.413  0.1272E+01  0.8317E+01
  -0.403  0.1277E+01  0.8330E+01
  -0.393  0.1282E+01  0.8342E+01
  -0.383  0.1286E+01  0.8355E+01
  -0.373  0.1291E+01  0.8368E+01
  -0.363  0.1295E+01  0.8381E+01
  -0.353  0.1304E+01  0.8394E+01
  -0.343  0.1313E+01  0.8407E+01
  -0.333  0.1322E+01  0.8420E+01
  -0.323  0.1332E+01  0.8434E+01
  -0.313  0.1342E+01  0.8447E+01
  -0.303  0.1352E+01  0.8460E+01
  -0.293  0.1362E+01  0.8474E+01
  -0.283  0.1372E+01  0.8488E+01
  -0.273  0.1382E+01  0.8501E+01
  -0.263  0.1393E+01  0.8515E+01
  -0.253  0.1403E+01  0.8529E+01
  -0.243  0.1413E+01  0.8543E+01
  -0.233  0.1391E+01  0.8557E+01
  -0.223  0.1395E+01  0.8571E+01
  -0.213  0.1399E+01  0.8585E+01
  -0.203  0.1403E+01  0.8599E+01
  -0.193  0.1407E+01  0.8613E+01
  -0.183  0.1411E+01  0.8628E+01
  -0.173  0.1415E+01  0.8642E+01
  -0.163  0.1418E+01  0.8656E+01
  -0.153  0.1422E+01  0.8670E+01
  -0.143  0.1426E+01  0.8684E+01
  -0.133  0.1429E+01  0.8699E+01
  -0.123  0.1433E+01  0.8713E+01
  -0.113  0.1436E+01  0.8727E+01
  -0.103  0.1439E+01  0.8742E+01
  -0.093  0.1443E+01  0.8756E+01
  -0.083  0.1446E+01  0.8770E+01
  -0.073  0.1449E+01  0.8785E+01
  -0.063  0.1452E+01  0.8799E+01
  -0.053  0.1455E+01  0.8814E+01
  -0.043  0.1458E+01  0.8829E+01
  -0.033  0.1461E+01  0.8843E+01
  -0.023  0.1463E+01  0.8858E+01
  -0.013  0.1465E+01  0.8872E+01
  -0.003  0.1466E+01  0.8887E+01
   0.007  0.1466E+01  0.8902E+01
   0.017  0.1465E+01  0.8916E+01
   0.027  0.1461E+01  0.8931E+01
   0.037  0.1457E+01  0.8946E+01
   0.047  0.1451E+01  0.8960E+01
   0.057  0.1442E+01  0.8975E+01
   0.067  0.1443E+01  0.8989E+01
   0.077  0.1441E+01  0.9003E+01
   0.087  0.1436E+01  0.9018E+01
   0.097  0.1428E+01  0.9032E+01
   0.107  0.1418E+01  0.9046E+01
   0.117  0.1412E+01  0.9061E+01
   0.127  0.1414E+01  0.9075E+01
   0.137  0.1419E+01  0.9089E+01
   0.147  0.1419E+01  0.9103E+01
   0.157  0.1405E+01  0.9117E+01
   0.167  0.1386E+01  0.9131E+01
   0.177  0.1370E+01  0.9145E+01
   0.187  0.1355E+01  0.9159E+01
   0.197  0.1343E+01  0.9172E+01
   0.207  0.1331E+01  0.9185E+01
   0.217  0.1324E+01  0.9199E+01
   0.227  0.1319E+01  0.9212E+01
   0.237  0.1314E+01  0.9225E+01
   0.247  0.1311E+01  0.9238E+01
   0.257  0.1309E+01  0.9251E+01
   0.267  0.1308E+01  0.9264E+01
   0.277  0.1309E+01  0.9277E+01
   0.287  0.1310E+01  0.9290E+01
   0.297  0.1313E+01  0.9304E+01
   0.307  0.1317E+01  0.9317E+01
   0.317  0.1327E+01  0.9330E+01
   0.327  0.1338E+01  0.9343E+01
   0.337  0.1349E+01  0.9357E+01
   0.347  0.1361E+01  0.9370E+01
   0.357  0.1380E+01  0.9384E+01
   0.367  0.1405E+01  0.9398E+01
   0.377  0.1434E+01  0.9412E+01
   0.387  0.1466E+01  0.9427E+01
   0.397  0.1502E+01  0.9441E+01
   0.407  0.1543E+01  0.9457E+01
   0.417  0.1589E+01  0.9472E+01
   0.427  0.1643E+01  0.9488E+01
   0.437  0.1696E+01  0.9505E+01
   0.447  0.1751E+01  0.9522E+01
   0.457  0.1803E+01  0.9540E+01
   0.467  0.1852E+01  0.9558E+01
   0.477  0.1898E+01  0.9577E+01
   0.487  0.1941E+01  0.9596E+01
   0.497  0.1984E+01  0.9616E+01
   0.507  0.2024E+01  0.9636E+01
   0.517  0.2098E+01  0.9657E+01
   0.527  0.2124E+01  0.9678E+01
   0.537  0.2147E+01  0.9699E+01
   0.547  0.2170E+01  0.9721E+01
   0.557  0.2193E+01  0.9743E+01
   0.567  0.2215E+01  0.9765E+01
   0.577  0.2237E+01  0.9787E+01
   0.587  0.2255E+01  0.9809E+01
   0.597  0.2273E+01  0.9832E+01
   0.607  0.2289E+01  0.9855E+01
   0.617  0.2304E+01  0.9878E+01
   0.627  0.2317E+01  0.9901E+01
   0.637  0.2329E+01  0.9924E+01
   0.647  0.2342E+01  0.9947E+01
   0.657  0.2363E+01  0.9971E+01
   0.667  0.2384E+01  0.9995E+01
   0.677  0.2406E+01  0.1002E+02
   0.687  0.2434E+01  0.1004E+02
   0.697  0.2476E+01  0.1007E+02
   0.707  0.2518E+01  0.1009E+02
   0.717  0.2562E+01  0.1012E+02
   0.727  0.2559E+01  0.1014E+02
   0.737  0.2552E+01  0.1017E+02
   0.747  0.2551E+01  0.1019E+02
   0.757  0.2557E+01  0.1022E+02
   0.767  0.2543E+01  0.1025E+02
   0.777  0.2526E+01  0.1027E+02
   0.787  0.2471E+01  0.1030E+02
   0.797  0.2478E+01  0.1032E+02
   0.807  0.2471E+01  0.1035E+02
   0.817  0.2399E+01  0.1037E+02
   0.827  0.2165E+01  0.1039E+02
   0.837  0.2026E+01  0.1041E+02
   0.847  0.1922E+01  0.1043E+02
   0.857  0.1928E+01  0.1045E+02
   0.867  0.1924E+01  0.1047E+02
   0.877  0.1907E+01  0.1049E+02
   0.887  0.1887E+01  0.1051E+02
   0.897  0.1867E+01  0.1053E+02
   0.907  0.1847E+01  0.1055E+02
   0.917  0.1828E+01  0.1057E+02
   0.927  0.1808E+01  0.1058E+02
   0.937  0.1788E+01  0.1060E+02
   0.947  0.1773E+01  0.1062E+02
   0.957  0.1766E+01  0.1064E+02
   0.967  0.1763E+01  0.1065E+02
   0.977  0.1757E+01  0.1067E+02
   0.987  0.1749E+01  0.1069E+02
   0.997  0.1738E+01  0.1071E+02
   1.007  0.1724E+01  0.1072E+02
   1.017  0.1717E+01  0.1074E+02
   1.027  0.1710E+01  0.1076E+02
   1.037  0.1700E+01  0.1078E+02
   1.047  0.1684E+01  0.1079E+02
   1.057  0.1666E+01  0.1081E+02
   1.067  0.1647E+01  0.1083E+02
   1.077  0.1628E+01  0.1084E+02
   1.087  0.1610E+01  0.1086E+02
   1.097  0.1593E+01  0.1087E+02
   1.107  0.1578E+01  0.1089E+02
   1.117  0.1563E+01  0.1091E+02
   1.127  0.1549E+01  0.1092E+02
   1.137  0.1534E+01  0.1094E+02
   1.147  0.1520E+01  0.1095E+02
   1.157  0.1507E+01  0.1097E+02
   1.167  0.1494E+01  0.1098E+02
   1.177  0.1487E+01  0.1100E+02
   1.187  0.1481E+01  0.1101E+02
   1.197  0.1476E+01  0.1103E+02
   1.207  0.1471E+01  0.1104E+02
   1.217  0.1465E+01  0.1106E+02
   1.227  0.1460E+01  0.1107E+02
   1.237  0.1454E+01  0.1109E+02
   1.247  0.1447E+01  0.1110E+02
   1.257  0.1438E+01  0.1111E+02
   1.267  0.1430E+01  0.1113E+02
   1.277  0.1421E+01  0.1114E+02
   1.287  0.1412E+01  0.1116E+02
   1.297  0.1394E+01  0.1117E+02
   1.307  0.1343E+01  0.1119E+02
   1.317  0.1283E+01  0.1120E+02
   1.327  0.1226E+01  0.1121E+02
   1.337  0.1169E+01  0.1122E+02
   1.347  0.1116E+01  0.1123E+02
   1.357  0.1079E+01  0.1125E+02
   1.367  0.1068E+01  0.1126E+02
   1.377  0.1075E+01  0.1127E+02
   1.387  0.1073E+01  0.1128E+02
   1.397  0.1069E+01  0.1129E+02
   1.407  0.1066E+01  0.1130E+02
   1.417  0.1064E+01  0.1131E+02
   1.427  0.1063E+01  0.1132E+02
   1.437  0.1066E+01  0.1133E+02
   1.447  0.1069E+01  0.1134E+02
   1.457  0.1072E+01  0.1135E+02
   1.467  0.1075E+01  0.1136E+02
   1.477  0.1078E+01  0.1137E+02
   1.487  0.1082E+01  0.1138E+02
   1.497  0.1085E+01  0.1140E+02
   1.507  0.1088E+01  0.1141E+02
   1.517  0.1092E+01  0.1142E+02
   1.527  0.1096E+01  0.1143E+02
   1.537  0.1142E+01  0.1144E+02
   1.547  0.1147E+01  0.1145E+02
   1.557  0.1153E+01  0.1146E+02
   1.567  0.1159E+01  0.1147E+02
   1.577  0.1168E+01  0.1149E+02
   1.587  0.1178E+01  0.1150E+02
   1.597  0.1189E+01  0.1151E+02
   1.607  0.1204E+01  0.1152E+02
   1.617  0.1223E+01  0.1153E+02
   1.627  0.1242E+01  0.1155E+02
   1.637  0.1263E+01  0.1156E+02
   1.647  0.1285E+01  0.1157E+02
   1.657  0.1308E+01  0.1158E+02
   1.667  0.1332E+01  0.1160E+02
   1.677  0.1357E+01  0.1161E+02
   1.687  0.1381E+01  0.1162E+02
   1.697  0.1403E+01  0.1164E+02
   1.707  0.1423E+01  0.1165E+02
   1.717  0.1440E+01  0.1167E+02
   1.727  0.1451E+01  0.1168E+02
   1.737  0.1461E+01  0.1170E+02
   1.747  0.1505E+01  0.1171E+02
   1.757  0.1717E+01  0.1173E+02
   1.767  0.1950E+01  0.1174E+02
   1.777  0.1965E+01  0.1176E+02
   1.787  0.1535E+01  0.1178E+02
   1.797  0.1524E+01  0.1180E+02
   1.807  0.1514E+01  0.1181E+02
   1.817  0.1506E+01  0.1183E+02
   1.827  0.1499E+01  0.1184E+02
   1.837  0.1492E+01  0.1186E+02
   1.847  0.1487E+01  0.1187E+02
   1.857  0.1483E+01  0.1189E+02
   1.867  0.1481E+01  0.1190E+02
   1.877  0.1479E+01  0.1192E+02
   1.887  0.1478E+01  0.1193E+02
   1.897  0.1478E+01  0.1195E+02
   1.907  0.1477E+01  0.1196E+02
   1.917  0.1476E+01  0.1197E+02
   1.927  0.1439E+01  0.1199E+02
   1.937  0.1368E+01  0.1200E+02
   1.947  0.1291E+01  0.1202E+02
   1.957  0.1263E+01  0.1203E+02
   1.967  0.1224E+01  0.1204E+02
   1.977  0.1283E+01  0.1205E+02
   1.987  0.1334E+01  0.1207E+02
   1.997  0.1366E+01  0.1208E+02
   2.007  0.1397E+01  0.1209E+02
   2.017  0.1414E+01  0.1211E+02
   2.027  0.1417E+01  0.1212E+02
   2.037  0.1413E+01  0.1214E+02
   2.047  0.1409E+01  0.1215E+02
   2.057  0.1405E+01  0.1217E+02
   2.067  0.1401E+01  0.1218E+02
   2.077  0.1397E+01  0.1219E+02
   2.087  0.1392E+01  0.1221E+02
   2.097  0.1387E+01  0.1222E+02
   2.107  0.1381E+01  0.1223E+02
   2.117  0.1376E+01  0.1225E+02
   2.127  0.1370E+01  0.1226E+02
   2.137  0.1364E+01  0.1228E+02
   2.147  0.1358E+01  0.1229E+02
   2.157  0.1353E+01  0.1230E+02
   2.167  0.1347E+01  0.1232E+02
   2.177  0.1341E+01  0.1233E+02
   2.187  0.1336E+01  0.1234E+02
   2.197  0.1335E+01  0.1236E+02
   2.207  0.1334E+01  0.1237E+02
   2.217  0.1333E+01  0.1238E+02
   2.227  0.1332E+01  0.1240E+02
   2.237  0.1332E+01  0.1241E+02
   2.247  0.1331E+01  0.1242E+02
   2.257  0.1331E+01  0.1244E+02
   2.267  0.1331E+01  0.1245E+02
   2.277  0.1330E+01  0.1246E+02
   2.287  0.1329E+01  0.1248E+02
   2.297  0.1328E+01  0.1249E+02
   2.307  0.1328E+01  0.1250E+02
   2.317  0.1327E+01  0.1252E+02
   2.327  0.1325E+01  0.1253E+02
   2.337  0.1324E+01  0.1254E+02
   2.347  0.1323E+01  0.1256E+02
   2.357  0.1322E+01  0.1257E+02
   2.367  0.1320E+01  0.1258E+02
   2.377  0.1318E+01  0.1260E+02
   2.387  0.1316E+01  0.1261E+02
   2.397  0.1313E+01  0.1262E+02
   2.407  0.1310E+01  0.1264E+02
   2.417  0.1307E+01  0.1265E+02
   2.427  0.1303E+01  0.1266E+02
   2.437  0.1299E+01  0.1267E+02
   2.447  0.1295E+01  0.1269E+02
   2.457  0.1291E+01  0.1270E+02
   2.467  0.1286E+01  0.1271E+02
   2.477  0.1281E+01  0.1273E+02
   2.487  0.1276E+01  0.1274E+02
   2.497  0.1271E+01  0.1275E+02
   2.507  0.1266E+01  0.1276E+02
   2.517  0.1261E+01  0.1278E+02
   2.527  0.1256E+01  0.1279E+02
   2.537  0.1251E+01  0.1280E+02
   2.547  0.1246E+01  0.1281E+02
   2.557  0.1241E+01  0.1283E+02
   2.567  0.1236E+01  0.1284E+02
   2.577  0.1231E+01  0.1285E+02
   2.587  0.1226E+01  0.1286E+02
   2.597  0.1221E+01  0.1288E+02
   2.607  0.1217E+01  0.1289E+02
   2.617  0.1212E+01  0.1290E+02
   2.627  0.1208E+01  0.1291E+02
   2.637  0.1204E+01  0.1292E+02
   2.647  0.1200E+01  0.1294E+02
   2.657  0.1197E+01  0.1295E+02
   2.667  0.1195E+01  0.1296E+02
   2.677  0.1194E+01  0.1297E+02
   2.687  0.1194E+01  0.1298E+02
   2.697  0.1193E+01  0.1300E+02
   2.707  0.1192E+01  0.1301E+02
   2.717  0.1191E+01  0.1302E+02
   2.727  0.1200E+01  0.1303E+02
   2.737  0.1206E+01  0.1304E+02
   2.747  0.1209E+01  0.1306E+02
   2.757  0.1213E+01  0.1307E+02
   2.767  0.1214E+01  0.1308E+02
   2.777  0.1212E+01  0.1309E+02
   2.787  0.1210E+01  0.1310E+02
   2.797  0.1208E+01  0.1312E+02
   2.807  0.1205E+01  0.1313E+02
   2.817  0.1203E+01  0.1314E+02
   2.827  0.1201E+01  0.1315E+02
   2.837  0.1199E+01  0.1317E+02
   2.847  0.1198E+01  0.1318E+02
   2.857  0.1196E+01  0.1319E+02
   2.867  0.1194E+01  0.1320E+02
   2.877  0.1192E+01  0.1321E+02
   2.887  0.1190E+01  0.1322E+02
   2.897  0.1188E+01  0.1324E+02
   2.907  0.1186E+01  0.1325E+02
   2.917  0.1184E+01  0.1326E+02
   2.927  0.1183E+01  0.1327E+02
   2.937  0.1181E+01  0.1328E+02
   2.947  0.1179E+01  0.1330E+02
   2.957  0.1177E+01  0.1331E+02
   2.967  0.1175E+01  0.1332E+02
   2.977  0.1174E+01  0.1333E+02
   2.987  0.1172E+01  0.1334E+02
   2.997  0.1170E+01  0.1335E+02
   3.007  0.1168E+01  0.1337E+02
   3.017  0.1166E+01  0.1338E+02
   3.027  0.1164E+01  0.1339E+02
   3.037  0.1162E+01  0.1340E+02
   3.047  0.1160E+01  0.1341E+02
   3.057  0.1158E+01  0.1342E+02
   3.067  0.1156E+01  0.1344E+02
   3.077  0.1154E+01  0.1345E+02
   3.087  0.1152E+01  0.1346E+02
   3.097  0.1150E+01  0.1347E+02
   3.107  0.1148E+01  0.1348E+02
   3.117  0.1146E+01  0.1349E+02
   3.127  0.1144E+01  0.1351E+02
   3.137  0.1142E+01  0.1352E+02
   3.147  0.1140E+01  0.1353E+02
   3.157  0.1138E+01  0.1354E+02
   3.167  0.1136E+01  0.1355E+02
   3.177  0.1134E+01  0.1356E+02
   3.187  0.1132E+01  0.1357E+02
   3.197  0.1130E+01  0.1358E+02
   3.207  0.1128E+01  0.1360E+02
   3.217  0.1126E+01  0.1361E+02
   3.227  0.1124E+01  0.1362E+02
   3.237  0.1122E+01  0.1363E+02
   3.247  0.1120E+01  0.1364E+02
   3.257  0.1118E+01  0.1365E+02
   3.267  0.1116E+01  0.1366E+02
   3.277  0.1114E+01  0.1367E+02
   3.287  0.1112E+01  0.1369E+02
   3.297  0.1110E+01  0.1370E+02
   3.307  0.1108E+01  0.1371E+02
   3.317  0.1106E+01  0.1372E+02
   3.327  0.1105E+01  0.1373E+02
   3.337  0.1103E+01  0.1374E+02
   3.347  0.1103E+01  0.1375E+02
   3.357  0.1104E+01  0.1376E+02
   3.367  0.1106E+01  0.1377E+02
   3.377  0.1110E+01  0.1379E+02
   3.387  0.1115E+01  0.1380E+02
   3.397  0.1120E+01  0.1381E+02
   3.407  0.1126E+01  0.1382E+02
   3.417  0.1131E+01  0.1383E+02
   3.427  0.1136E+01  0.1384E+02
   3.437  0.1142E+01  0.1385E+02
   3.447  0.1147E+01  0.1386E+02
   3.457  0.1152E+01  0.1388E+02
   3.467  0.1158E+01  0.1389E+02
   3.477  0.1160E+01  0.1390E+02
   3.487  0.1160E+01  0.1391E+02
   3.497  0.1158E+01  0.1392E+02
   3.507  0.1155E+01  0.1393E+02
   3.517  0.1153E+01  0.1395E+02
   3.527  0.1150E+01  0.1396E+02
   3.537  0.1147E+01  0.1397E+02
   3.547  0.1145E+01  0.1398E+02
   3.557  0.1142E+01  0.1399E+02
   3.567  0.1140E+01  0.1400E+02
   3.577  0.1137E+01  0.1401E+02
   3.587  0.1135E+01  0.1403E+02
   3.597  0.1132E+01  0.1404E+02
   3.607  0.1130E+01  0.1405E+02
   3.617  0.1127E+01  0.1406E+02
   3.627  0.1125E+01  0.1407E+02
   3.637  0.1123E+01  0.1408E+02
   3.647  0.1121E+01  0.1409E+02
   3.657  0.1118E+01  0.1410E+02
   3.667  0.1116E+01  0.1412E+02
   3.677  0.1114E+01  0.1413E+02
   3.687  0.1112E+01  0.1414E+02
   3.697  0.1110E+01  0.1415E+02
   3.707  0.1108E+01  0.1416E+02
   3.717  0.1128E+01  0.1417E+02
   3.727  0.1152E+01  0.1418E+02
   3.737  0.1165E+01  0.1419E+02
   3.747  0.1199E+01  0.1421E+02
   3.757  0.1191E+01  0.1422E+02
   3.767  0.1184E+01  0.1423E+02
   3.777  0.1177E+01  0.1424E+02
   3.787  0.1170E+01  0.1425E+02
   3.797  0.1163E+01  0.1426E+02
   3.807  0.1155E+01  0.1428E+02
   3.817  0.1148E+01  0.1429E+02
   3.827  0.1141E+01  0.1430E+02
   3.837  0.1134E+01  0.1431E+02
   3.847  0.1127E+01  0.1432E+02
   3.857  0.1120E+01  0.1433E+02
   3.867  0.1114E+01  0.1434E+02
   3.877  0.1107E+01  0.1436E+02
   3.887  0.1100E+01  0.1437E+02
   3.897  0.1093E+01  0.1438E+02
   3.907  0.1086E+01  0.1439E+02
   3.917  0.1115E+01  0.1440E+02
   3.927  0.1169E+01  0.1441E+02
   3.937  0.1200E+01  0.1442E+02
   3.947  0.1253E+01  0.1443E+02
   3.957  0.1230E+01  0.1445E+02
   3.967  0.1206E+01  0.1446E+02
   3.977  0.1183E+01  0.1447E+02
   3.987  0.1160E+01  0.1448E+02
   3.997  0.1136E+01  0.1449E+02
   4.007  0.1113E+01  0.1451E+02
   4.017  0.1090E+01  0.1452E+02
   4.027  0.1067E+01  0.1453E+02
   4.037  0.1051E+01  0.1454E+02
   4.047  0.1035E+01  0.1455E+02
   4.057  0.1018E+01  0.1456E+02
   4.067  0.1001E+01  0.1457E+02
   4.077  0.9837E+00  0.1458E+02
   4.087  0.9635E+00  0.1459E+02
   4.097  0.9409E+00  0.1460E+02
   4.107  0.9181E+00  0.1461E+02
   4.117  0.8951E+00  0.1462E+02
   4.127  0.8720E+00  0.1463E+02
   4.137  0.8488E+00  0.1463E+02
   4.147  0.8259E+00  0.1464E+02
   4.157  0.8074E+00  0.1465E+02
   4.167  0.8004E+00  0.1466E+02
   4.177  0.8025E+00  0.1467E+02
   4.187  0.8045E+00  0.1467E+02
   4.197  0.8063E+00  0.1468E+02
   4.207  0.8079E+00  0.1469E+02
   4.217  0.8094E+00  0.1470E+02
   4.227  0.8108E+00  0.1471E+02
   4.237  0.8120E+00  0.1471E+02
   4.247  0.8123E+00  0.1472E+02
   4.257  0.8126E+00  0.1473E+02
   4.267  0.8127E+00  0.1474E+02
   4.277  0.8127E+00  0.1475E+02
   4.287  0.8127E+00  0.1476E+02
   4.297  0.8125E+00  0.1476E+02
   4.307  0.8124E+00  0.1477E+02
   4.317  0.8122E+00  0.1478E+02
   4.327  0.8121E+00  0.1479E+02
   4.337  0.8120E+00  0.1480E+02
   4.347  0.8119E+00  0.1480E+02
   4.357  0.8118E+00  0.1481E+02
   4.367  0.8116E+00  0.1482E+02
   4.377  0.8114E+00  0.1483E+02
   4.387  0.8112E+00  0.1484E+02
   4.397  0.8540E+00  0.1484E+02
   4.407  0.9512E+00  0.1485E+02
   4.417  0.9472E+00  0.1486E+02
   4.427  0.9438E+00  0.1487E+02
   4.437  0.9411E+00  0.1488E+02
   4.447  0.9212E+00  0.1489E+02
   4.457  0.8925E+00  0.1490E+02
   4.467  0.8715E+00  0.1491E+02
   4.477  0.8673E+00  0.1492E+02
   4.487  0.8632E+00  0.1493E+02
   4.497  0.8592E+00  0.1494E+02
   4.507  0.8555E+00  0.1494E+02
   4.517  0.8519E+00  0.1495E+02
   4.527  0.8485E+00  0.1496E+02
   4.537  0.8453E+00  0.1497E+02
   4.547  0.8422E+00  0.1498E+02
   4.557  0.8392E+00  0.1499E+02
   4.567  0.8364E+00  0.1499E+02
   4.577  0.8334E+00  0.1500E+02
   4.587  0.8293E+00  0.1501E+02
   4.597  0.8240E+00  0.1502E+02
   4.607  0.8176E+00  0.1503E+02
   4.617  0.8124E+00  0.1504E+02
   4.627  0.8106E+00  0.1504E+02
   4.637  0.8091E+00  0.1505E+02
   4.647  0.8077E+00  0.1506E+02
   4.657  0.8066E+00  0.1507E+02
   4.667  0.8057E+00  0.1508E+02
   4.677  0.8054E+00  0.1508E+02
   4.687  0.8377E+00  0.1509E+02
   4.697  0.8389E+00  0.1510E+02
   4.707  0.8400E+00  0.1511E+02
   4.717  0.8412E+00  0.1512E+02
   4.727  0.8423E+00  0.1513E+02
   4.737  0.8434E+00  0.1513E+02
   4.747  0.8445E+00  0.1514E+02
   4.757  0.8535E+00  0.1515E+02
   4.767  0.8632E+00  0.1516E+02
   4.777  0.8722E+00  0.1517E+02
   4.787  0.8802E+00  0.1518E+02
   4.797  0.8874E+00  0.1519E+02
   4.807  0.8948E+00  0.1520E+02
   4.817  0.9010E+00  0.1520E+02
   4.827  0.9059E+00  0.1521E+02
   4.837  0.8272E+00  0.1522E+02
   4.847  0.8278E+00  0.1523E+02
   4.857  0.8283E+00  0.1524E+02
   4.867  0.8296E+00  0.1525E+02
   4.877  0.8338E+00  0.1526E+02
   4.887  0.8417E+00  0.1526E+02
   4.897  0.8487E+00  0.1527E+02
   4.907  0.8547E+00  0.1528E+02
   4.917  0.8598E+00  0.1529E+02
   4.927  0.8653E+00  0.1530E+02
   4.937  0.8734E+00  0.1531E+02
   4.947  0.8812E+00  0.1532E+02
   4.957  0.8888E+00  0.1532E+02
   4.967  0.8961E+00  0.1533E+02
   4.977  0.9032E+00  0.1534E+02
   4.987  0.9100E+00  0.1535E+02
   4.997  0.9342E+00  0.1536E+02
   5.007  0.9584E+00  0.1537E+02
   5.017  0.9751E+00  0.1538E+02
   5.027  0.9837E+00  0.1539E+02
   5.037  0.9530E+00  0.1540E+02
   5.047  0.9220E+00  0.1541E+02
   5.057  0.8891E+00  0.1542E+02
   5.067  0.8108E+00  0.1543E+02
   5.077  0.7791E+00  0.1543E+02
   5.087  0.7496E+00  0.1544E+02
   5.097  0.7226E+00  0.1545E+02
   5.107  0.6946E+00  0.1546E+02
   5.117  0.6688E+00  0.1546E+02
   5.127  0.6523E+00  0.1547E+02
   5.137  0.6460E+00  0.1548E+02
   5.147  0.6410E+00  0.1548E+02
   5.157  0.6358E+00  0.1549E+02
   5.167  0.6307E+00  0.1549E+02
   5.177  0.6256E+00  0.1550E+02
   5.187  0.6206E+00  0.1551E+02
   5.197  0.6157E+00  0.1551E+02
   5.207  0.6110E+00  0.1552E+02
   5.217  0.6062E+00  0.1553E+02
   5.227  0.6014E+00  0.1553E+02
   5.237  0.5965E+00  0.1554E+02
   5.247  0.5916E+00  0.1554E+02
   5.257  0.5865E+00  0.1555E+02
   5.267  0.5812E+00  0.1556E+02
   5.277  0.5761E+00  0.1556E+02
   5.287  0.5712E+00  0.1557E+02
   5.297  0.5664E+00  0.1557E+02
   5.307  0.5617E+00  0.1558E+02
   5.317  0.5571E+00  0.1558E+02
   5.327  0.5528E+00  0.1559E+02
   5.337  0.5485E+00  0.1559E+02
   5.347  0.5444E+00  0.1560E+02
   5.357  0.5404E+00  0.1561E+02
   5.367  0.5363E+00  0.1561E+02
   5.377  0.5279E+00  0.1562E+02
   5.387  0.5199E+00  0.1562E+02
   5.397  0.5124E+00  0.1563E+02
   5.407  0.5075E+00  0.1563E+02
   5.417  0.5073E+00  0.1564E+02
   5.427  0.5071E+00  0.1564E+02
   5.437  0.5068E+00  0.1565E+02
   5.447  0.5065E+00  0.1565E+02
   5.457  0.5061E+00  0.1566E+02
   5.467  0.5057E+00  0.1566E+02
   5.477  0.5052E+00  0.1567E+02
   5.487  0.4996E+00  0.1567E+02
   5.497  0.4938E+00  0.1568E+02
   5.507  0.4877E+00  0.1568E+02
   5.517  0.4815E+00  0.1569E+02
   5.527  0.4753E+00  0.1569E+02
   5.537  0.4706E+00  0.1570E+02
   5.547  0.4674E+00  0.1570E+02
   5.557  0.4640E+00  0.1571E+02
   5.567  0.4604E+00  0.1571E+02
   5.577  0.4566E+00  0.1572E+02
   5.587  0.4524E+00  0.1572E+02
   5.597  0.4480E+00  0.1572E+02
   5.607  0.4432E+00  0.1573E+02
   5.617  0.4381E+00  0.1573E+02
   5.627  0.4327E+00  0.1574E+02
   5.637  0.4270E+00  0.1574E+02
   5.647  0.4210E+00  0.1575E+02
   5.657  0.4150E+00  0.1575E+02
   5.667  0.4087E+00  0.1575E+02
   5.677  0.4023E+00  0.1576E+02
   5.687  0.3958E+00  0.1576E+02
   5.697  0.3900E+00  0.1577E+02
   5.707  0.3843E+00  0.1577E+02
   5.717  0.3787E+00  0.1577E+02
   5.727  0.3731E+00  0.1578E+02
   5.737  0.3676E+00  0.1578E+02
   5.747  0.3622E+00  0.1579E+02
   5.757  0.3568E+00  0.1579E+02
   5.767  0.3514E+00  0.1579E+02
   5.777  0.3461E+00  0.1580E+02
   5.787  0.3408E+00  0.1580E+02
   5.797  0.3356E+00  0.1580E+02
   5.807  0.3304E+00  0.1581E+02
   5.817  0.3253E+00  0.1581E+02
   5.827  0.3204E+00  0.1581E+02
   5.837  0.3157E+00  0.1582E+02
   5.847  0.3112E+00  0.1582E+02
   5.857  0.3068E+00  0.1582E+02
   5.867  0.3027E+00  0.1582E+02
   5.877  0.2993E+00  0.1583E+02
   5.887  0.2966E+00  0.1583E+02
   5.897  0.2940E+00  0.1583E+02
   5.907  0.2913E+00  0.1584E+02
   5.917  0.2777E+00  0.1584E+02
   5.927  0.2758E+00  0.1584E+02
   5.937  0.2739E+00  0.1585E+02
   5.947  0.2721E+00  0.1585E+02
   5.957  0.2702E+00  0.1585E+02
   5.967  0.2683E+00  0.1585E+02
   5.977  0.2664E+00  0.1586E+02
   5.987  0.2645E+00  0.1586E+02
   5.997  0.2626E+00  0.1586E+02
   6.007  0.2608E+00  0.1586E+02
   6.017  0.2589E+00  0.1587E+02
   6.027  0.2570E+00  0.1587E+02
   6.037  0.2551E+00  0.1587E+02
   6.047  0.2532E+00  0.1587E+02
   6.057  0.2513E+00  0.1588E+02
   6.067  0.2494E+00  0.1588E+02
   6.077  0.2475E+00  0.1588E+02
   6.087  0.2456E+00  0.1588E+02
   6.097  0.2437E+00  0.1589E+02
   6.107  0.2418E+00  0.1589E+02
   6.117  0.2398E+00  0.1589E+02
   6.127  0.2379E+00  0.1589E+02
   6.137  0.2360E+00  0.1590E+02
   6.147  0.2250E+00  0.1590E+02
   6.157  0.2223E+00  0.1590E+02
   6.167  0.2195E+00  0.1590E+02
   6.177  0.2168E+00  0.1591E+02
   6.187  0.2140E+00  0.1591E+02
   6.197  0.2113E+00  0.1591E+02
   6.207  0.2085E+00  0.1591E+02
   6.217  0.2057E+00  0.1591E+02
   6.227  0.2030E+00  0.1592E+02
   6.237  0.2002E+00  0.1592E+02
   6.247  0.1974E+00  0.1592E+02
   6.257  0.1947E+00  0.1592E+02
   6.267  0.1919E+00  0.1592E+02
   6.277  0.1891E+00  0.1593E+02
   6.287  0.1863E+00  0.1593E+02
   6.297  0.1836E+00  0.1593E+02
   6.307  0.1808E+00  0.1593E+02
   6.317  0.1780E+00  0.1593E+02
   6.327  0.1752E+00  0.1593E+02
   6.337  0.1724E+00  0.1594E+02
   6.347  0.1699E+00  0.1594E+02
   6.357  0.1673E+00  0.1594E+02
   6.367  0.1647E+00  0.1594E+02
   6.377  0.1622E+00  0.1594E+02
   6.387  0.1596E+00  0.1594E+02
   6.397  0.1570E+00  0.1595E+02
   6.407  0.1544E+00  0.1595E+02
   6.417  0.1519E+00  0.1595E+02
   6.427  0.1493E+00  0.1595E+02
   6.437  0.1467E+00  0.1595E+02
   6.447  0.1442E+00  0.1595E+02
   6.457  0.1421E+00  0.1596E+02
   6.467  0.1408E+00  0.1596E+02
   6.477  0.1395E+00  0.1596E+02
   6.487  0.1382E+00  0.1596E+02
   6.497  0.1362E+00  0.1596E+02
   6.507  0.1335E+00  0.1596E+02
   6.517  0.1309E+00  0.1596E+02
   6.527  0.1283E+00  0.1596E+02
   6.537  0.1257E+00  0.1597E+02
   6.547  0.1232E+00  0.1597E+02
   6.557  0.1206E+00  0.1597E+02
   6.567  0.1181E+00  0.1597E+02
   6.577  0.1156E+00  0.1597E+02
   6.587  0.1130E+00  0.1597E+02
   6.597  0.1106E+00  0.1597E+02
   6.607  0.1081E+00  0.1597E+02
   6.617  0.1056E+00  0.1598E+02
   6.627  0.1032E+00  0.1598E+02
   6.637  0.1008E+00  0.1598E+02
   6.647  0.9839E-01  0.1598E+02
   6.657  0.9601E-01  0.1598E+02
   6.667  0.9364E-01  0.1598E+02
   6.677  0.9129E-01  0.1598E+02
   6.687  0.8895E-01  0.1598E+02
   6.697  0.8662E-01  0.1598E+02
   6.707  0.8430E-01  0.1598E+02
   6.717  0.8199E-01  0.1598E+02
   6.727  0.7969E-01  0.1599E+02
   6.737  0.7741E-01  0.1599E+02
   6.747  0.7513E-01  0.1599E+02
   6.757  0.7286E-01  0.1599E+02
   6.767  0.7060E-01  0.1599E+02
   6.777  0.6835E-01  0.1599E+02
   6.787  0.6611E-01  0.1599E+02
   6.797  0.6388E-01  0.1599E+02
   6.807  0.6166E-01  0.1599E+02
   6.817  0.5945E-01  0.1599E+02
   6.827  0.5725E-01  0.1599E+02
   6.837  0.5506E-01  0.1599E+02
   6.847  0.5288E-01  0.1599E+02
   6.857  0.5071E-01  0.1599E+02
   6.867  0.4854E-01  0.1599E+02
   6.877  0.4639E-01  0.1599E+02
   6.887  0.4425E-01  0.1600E+02
   6.897  0.4212E-01  0.1600E+02
   6.907  0.4000E-01  0.1600E+02
   6.917  0.3789E-01  0.1600E+02
   6.927  0.3579E-01  0.1600E+02
   6.937  0.3370E-01  0.1600E+02
   6.947  0.3162E-01  0.1600E+02
   6.957  0.2962E-01  0.1600E+02
   6.967  0.2769E-01  0.1600E+02
   6.977  0.2576E-01  0.1600E+02
   6.987  0.2382E-01  0.1600E+02
   6.997  0.2189E-01  0.1600E+02
   7.007  0.1995E-01  0.1600E+02
   7.017  0.1802E-01  0.1600E+02
   7.027  0.1608E-01  0.1600E+02
   7.037  0.1414E-01  0.1600E+02
   7.047  0.1221E-01  0.1600E+02
   7.057  0.1027E-01  0.1600E+02
   7.067  0.8327E-02  0.1600E+02
   7.077  0.6388E-02  0.1600E+02
   7.087  0.4447E-02  0.1600E+02
   7.097  0.2607E-02  0.1600E+02
   7.107  0.1826E-02  0.1600E+02
   7.117  0.1699E-02  0.1600E+02
   7.127  0.2127E-02  0.1600E+02
   7.137  0.3168E-02  0.1600E+02
   7.147  0.4484E-02  0.1600E+02
   7.157  0.5799E-02  0.1600E+02
   7.167  0.7115E-02  0.1600E+02
   7.177  0.8430E-02  0.1600E+02
   7.187  0.9745E-02  0.1600E+02
   7.197  0.1106E-01  0.1600E+02
   7.207  0.1238E-01  0.1600E+02
   7.217  0.1369E-01  0.1600E+02
   7.227  0.1501E-01  0.1600E+02
   7.237  0.1632E-01  0.1600E+02
   7.247  0.1763E-01  0.1600E+02
   7.257  0.1895E-01  0.1600E+02
   7.267  0.2026E-01  0.1600E+02
   7.277  0.2158E-01  0.1600E+02
   7.287  0.2305E-01  0.1600E+02
   7.297  0.2454E-01  0.1600E+02
   7.307  0.2605E-01  0.1600E+02
   7.317  0.2757E-01  0.1600E+02
   7.327  0.2910E-01  0.1600E+02
   7.337  0.3065E-01  0.1600E+02
   7.347  0.3220E-01  0.1600E+02
   7.357  0.3377E-01  0.1600E+02
   7.367  0.3535E-01  0.1600E+02
   7.377  0.3694E-01  0.1600E+02
   7.387  0.3854E-01  0.1601E+02
   7.397  0.4016E-01  0.1601E+02
   7.407  0.4179E-01  0.1601E+02
   7.417  0.4342E-01  0.1601E+02
   7.427  0.4508E-01  0.1601E+02
   7.437  0.4674E-01  0.1601E+02
   7.447  0.4841E-01  0.1601E+02
   7.457  0.5010E-01  0.1601E+02
   7.467  0.5180E-01  0.1601E+02
   7.477  0.5351E-01  0.1601E+02
   7.487  0.5523E-01  0.1601E+02
   7.497  0.5697E-01  0.1601E+02
   7.507  0.5871E-01  0.1601E+02
   7.517  0.6047E-01  0.1601E+02
   7.527  0.6224E-01  0.1601E+02
   7.537  0.6403E-01  0.1601E+02
   7.547  0.6582E-01  0.1601E+02
   7.557  0.6763E-01  0.1601E+02
   7.567  0.6944E-01  0.1601E+02
   7.577  0.7128E-01  0.1602E+02
   7.587  0.7312E-01  0.1602E+02
   7.597  0.7497E-01  0.1602E+02
   7.607  0.7685E-01  0.1602E+02
   7.617  0.7875E-01  0.1602E+02
   7.627  0.8068E-01  0.1602E+02
   7.637  0.8263E-01  0.1602E+02
   7.647  0.8461E-01  0.1602E+02
   7.657  0.8661E-01  0.1602E+02
   7.667  0.8864E-01  0.1602E+02
   7.677  0.9069E-01  0.1602E+02
   7.687  0.9276E-01  0.1602E+02
   7.697  0.9487E-01  0.1603E+02
   7.707  0.9699E-01  0.1603E+02
   7.717  0.9914E-01  0.1603E+02
   7.727  0.1013E+00  0.1603E+02
   7.737  0.1035E+00  0.1603E+02
   7.747  0.1057E+00  0.1603E+02
   7.757  0.1080E+00  0.1603E+02
   7.767  0.1103E+00  0.1603E+02
   7.777  0.1126E+00  0.1603E+02
   7.787  0.1149E+00  0.1603E+02
   7.797  0.1172E+00  0.1604E+02
   7.807  0.1196E+00  0.1604E+02
   7.817  0.1220E+00  0.1604E+02
   7.827  0.1244E+00  0.1604E+02
   7.837  0.1269E+00  0.1604E+02
   7.847  0.1295E+00  0.1604E+02
   7.857  0.1322E+00  0.1604E+02
   7.867  0.1349E+00  0.1604E+02
   7.877  0.1377E+00  0.1605E+02
   7.887  0.1407E+00  0.1605E+02
   7.897  0.1437E+00  0.1605E+02
   7.907  0.1468E+00  0.1605E+02
   7.917  0.1499E+00  0.1605E+02
   7.927  0.1531E+00  0.1605E+02
   7.937  0.1562E+00  0.1605E+02
   7.947  0.1594E+00  0.1606E+02
   7.957  0.1672E+00  0.1606E+02
   7.967  0.1748E+00  0.1606E+02
   7.977  0.1803E+00  0.1606E+02
   7.987  0.1858E+00  0.1606E+02
   7.997  0.1915E+00  0.1607E+02
   8.007  0.1971E+00  0.1607E+02
   8.017  0.2028E+00  0.1607E+02
   8.027  0.2081E+00  0.1607E+02
   8.037  0.2134E+00  0.1607E+02
   8.047  0.2187E+00  0.1608E+02
   8.057  0.2240E+00  0.1608E+02
   8.067  0.2293E+00  0.1608E+02
   8.077  0.2346E+00  0.1608E+02
   8.087  0.2400E+00  0.1608E+02
   8.097  0.2453E+00  0.1609E+02
   8.107  0.2507E+00  0.1609E+02
   8.117  0.2724E+00  0.1609E+02
   8.127  0.2742E+00  0.1610E+02
   8.137  0.2759E+00  0.1610E+02
   8.147  0.2776E+00  0.1610E+02
   8.157  0.2794E+00  0.1610E+02
   8.167  0.2811E+00  0.1611E+02
   8.177  0.2829E+00  0.1611E+02
   8.187  0.2846E+00  0.1611E+02
   8.197  0.2863E+00  0.1611E+02
   8.207  0.2881E+00  0.1612E+02
   8.217  0.2898E+00  0.1612E+02
   8.227  0.2916E+00  0.1612E+02
   8.237  0.2933E+00  0.1613E+02
   8.247  0.3264E+00  0.1613E+02
   8.257  0.3310E+00  0.1613E+02
   8.267  0.3353E+00  0.1614E+02
   8.277  0.3395E+00  0.1614E+02
   8.287  0.3435E+00  0.1614E+02
   8.297  0.3472E+00  0.1615E+02
   8.307  0.3508E+00  0.1615E+02
   8.317  0.3541E+00  0.1615E+02
   8.327  0.3573E+00  0.1616E+02
   8.337  0.3603E+00  0.1616E+02
   8.347  0.3631E+00  0.1616E+02
   8.357  0.3656E+00  0.1617E+02
   8.367  0.3680E+00  0.1617E+02
   8.377  0.3702E+00  0.1618E+02
   8.387  0.3741E+00  0.1618E+02
   8.397  0.3805E+00  0.1618E+02
   8.407  0.3877E+00  0.1619E+02
   8.417  0.3950E+00  0.1619E+02
   8.427  0.4022E+00  0.1619E+02
   8.437  0.4091E+00  0.1620E+02
   8.447  0.4180E+00  0.1620E+02
   8.457  0.4277E+00  0.1621E+02
   8.467  0.4387E+00  0.1621E+02
   8.477  0.4520E+00  0.1622E+02
   8.487  0.4679E+00  0.1622E+02
   8.497  0.4879E+00  0.1622E+02
   8.507  0.5238E+00  0.1623E+02
   8.517  0.5560E+00  0.1624E+02
   8.527  0.5847E+00  0.1624E+02
   8.537  0.6111E+00  0.1625E+02
   8.547  0.6215E+00  0.1625E+02
   8.557  0.6223E+00  0.1626E+02
   8.567  0.6241E+00  0.1627E+02
   8.577  0.6267E+00  0.1627E+02
   8.587  0.6308E+00  0.1628E+02
   8.597  0.6740E+00  0.1628E+02
   8.607  0.7661E+00  0.1629E+02
   8.617  0.8797E+00  0.1630E+02
   8.627  0.1002E+01  0.1631E+02
   8.637  0.1132E+01  0.1632E+02
   8.647  0.1268E+01  0.1633E+02
   8.657  0.1412E+01  0.1635E+02
   8.667  0.1368E+01  0.1636E+02
   8.677  0.1213E+01  0.1637E+02
   8.687  0.1174E+01  0.1638E+02
   8.697  0.1204E+01  0.1640E+02
   8.707  0.1240E+01  0.1641E+02
   8.717  0.1115E+01  0.1642E+02
   8.727  0.1091E+01  0.1643E+02
   8.737  0.1062E+01  0.1644E+02
   8.747  0.1033E+01  0.1645E+02
   8.757  0.1021E+01  0.1646E+02
   8.767  0.1007E+01  0.1647E+02
   8.777  0.9902E+00  0.1648E+02
   8.787  0.9023E+00  0.1649E+02
   8.797  0.8943E+00  0.1650E+02
   8.807  0.8859E+00  0.1651E+02
   8.817  0.8807E+00  0.1652E+02
   8.827  0.8800E+00  0.1653E+02
   8.837  0.8794E+00  0.1654E+02
   8.847  0.8791E+00  0.1655E+02
   8.857  0.8791E+00  0.1655E+02
   8.867  0.8466E+00  0.1656E+02
   8.877  0.8534E+00  0.1657E+02
   8.887  0.8616E+00  0.1658E+02
   8.897  0.8708E+00  0.1659E+02
   8.907  0.8809E+00  0.1660E+02
   8.917  0.8919E+00  0.1661E+02
   8.927  0.9039E+00  0.1662E+02
   8.937  0.9169E+00  0.1662E+02
   8.947  0.8482E+00  0.1663E+02
   8.957  0.8482E+00  0.1664E+02
   8.967  0.8483E+00  0.1665E+02
   8.977  0.8485E+00  0.1666E+02
   8.987  0.8489E+00  0.1667E+02
   8.997  0.8496E+00  0.1668E+02
   9.007  0.8506E+00  0.1668E+02
   9.017  0.8520E+00  0.1669E+02
   9.027  0.8535E+00  0.1670E+02
   9.037  0.8552E+00  0.1671E+02
   9.047  0.8569E+00  0.1672E+02
   9.057  0.8587E+00  0.1673E+02
   9.067  0.8293E+00  0.1674E+02
   9.077  0.8275E+00  0.1674E+02
   9.087  0.8259E+00  0.1675E+02
   9.097  0.8246E+00  0.1676E+02
   9.107  0.8233E+00  0.1677E+02
   9.117  0.8223E+00  0.1678E+02
   9.127  0.8217E+00  0.1678E+02
   9.137  0.8215E+00  0.1679E+02
   9.147  0.8209E+00  0.1680E+02
   9.157  0.8202E+00  0.1681E+02
   9.167  0.8196E+00  0.1682E+02
   9.177  0.8191E+00  0.1683E+02
   9.187  0.8186E+00  0.1683E+02
   9.197  0.8182E+00  0.1684E+02
   9.207  0.8179E+00  0.1685E+02
   9.217  0.8181E+00  0.1686E+02
   9.227  0.8208E+00  0.1687E+02
   9.237  0.8262E+00  0.1687E+02
   9.247  0.8344E+00  0.1688E+02
   9.257  0.8455E+00  0.1689E+02
   9.267  0.8592E+00  0.1690E+02
   9.277  0.8756E+00  0.1691E+02
   9.287  0.8971E+00  0.1692E+02
   9.297  0.9050E+00  0.1693E+02
   9.307  0.8954E+00  0.1694E+02
   9.317  0.8785E+00  0.1694E+02
   9.327  0.8545E+00  0.1695E+02
   9.337  0.8234E+00  0.1696E+02
   9.347  0.7852E+00  0.1697E+02
   9.357  0.7745E+00  0.1698E+02
   9.367  0.7725E+00  0.1699E+02
   9.377  0.7704E+00  0.1699E+02
   9.387  0.7684E+00  0.1700E+02
   9.397  0.7662E+00  0.1701E+02
   9.407  0.7641E+00  0.1702E+02
   9.417  0.7618E+00  0.1702E+02
   9.427  0.7594E+00  0.1703E+02
   9.437  0.7569E+00  0.1704E+02
   9.447  0.7543E+00  0.1705E+02
   9.457  0.7516E+00  0.1705E+02
   9.467  0.7487E+00  0.1706E+02
   9.477  0.7458E+00  0.1707E+02
   9.487  0.7427E+00  0.1708E+02
   9.497  0.7394E+00  0.1708E+02
   9.507  0.7361E+00  0.1709E+02
   9.517  0.7311E+00  0.1710E+02
   9.527  0.7235E+00  0.1711E+02
   9.537  0.7156E+00  0.1711E+02
   9.547  0.7073E+00  0.1712E+02
   9.557  0.6987E+00  0.1713E+02
   9.567  0.6897E+00  0.1713E+02
   9.577  0.6804E+00  0.1714E+02
   9.587  0.6708E+00  0.1715E+02
   9.597  0.6639E+00  0.1715E+02
   9.607  0.6602E+00  0.1716E+02
   9.617  0.6567E+00  0.1717E+02
   9.627  0.6534E+00  0.1717E+02
   9.637  0.6501E+00  0.1718E+02
   9.647  0.6469E+00  0.1719E+02
   9.657  0.6439E+00  0.1719E+02
   9.667  0.6410E+00  0.1720E+02
   9.677  0.6383E+00  0.1721E+02
   9.687  0.6355E+00  0.1721E+02
   9.697  0.6328E+00  0.1722E+02
   9.707  0.6300E+00  0.1723E+02
   9.717  0.6273E+00  0.1723E+02
   9.727  0.6247E+00  0.1724E+02
   9.737  0.6220E+00  0.1724E+02
   9.747  0.6194E+00  0.1725E+02
   9.757  0.6169E+00  0.1726E+02
   9.767  0.6144E+00  0.1726E+02
   9.777  0.6119E+00  0.1727E+02
   9.787  0.6094E+00  0.1727E+02
   9.797  0.6070E+00  0.1728E+02
   9.807  0.6046E+00  0.1729E+02
   9.817  0.6022E+00  0.1729E+02
   9.827  0.5998E+00  0.1730E+02
   9.837  0.5975E+00  0.1730E+02
   9.847  0.5953E+00  0.1731E+02
   9.857  0.5930E+00  0.1732E+02
   9.867  0.5908E+00  0.1732E+02
   9.877  0.5886E+00  0.1733E+02
   9.887  0.5865E+00  0.1733E+02
   9.897  0.5844E+00  0.1734E+02
   9.907  0.5822E+00  0.1735E+02
   9.917  0.5802E+00  0.1735E+02
   9.927  0.5781E+00  0.1736E+02
   9.937  0.5761E+00  0.1736E+02
   9.947  0.5741E+00  0.1737E+02
   9.957  0.5721E+00  0.1737E+02
   9.967  0.5701E+00  0.1738E+02
   9.977  0.5682E+00  0.1739E+02
   9.987  0.5663E+00  0.1739E+02
   9.997  0.5644E+00  0.1740E+02
  10.007  0.5625E+00  0.1740E+02
  10.017  0.5606E+00  0.1741E+02
  10.027  0.5588E+00  0.1741E+02
  10.037  0.5570E+00  0.1742E+02
  10.047  0.5552E+00  0.1743E+02
  10.057  0.5535E+00  0.1743E+02
  10.067  0.5518E+00  0.1744E+02
  10.077  0.5501E+00  0.1744E+02
  10.087  0.5485E+00  0.1745E+02
  10.097  0.5469E+00  0.1745E+02
  10.107  0.5454E+00  0.1746E+02
  10.117  0.5439E+00  0.1746E+02
  10.127  0.5424E+00  0.1747E+02
  10.137  0.5410E+00  0.1747E+02
  10.147  0.5396E+00  0.1748E+02
  10.157  0.5381E+00  0.1749E+02
  10.167  0.5367E+00  0.1749E+02
  10.177  0.5353E+00  0.1750E+02
  10.187  0.5339E+00  0.1750E+02
  10.197  0.5325E+00  0.1751E+02
  10.207  0.5310E+00  0.1751E+02
  10.217  0.5296E+00  0.1752E+02
  10.227  0.5282E+00  0.1752E+02
  10.237  0.5264E+00  0.1753E+02
  10.247  0.5244E+00  0.1753E+02
  10.257  0.5223E+00  0.1754E+02
  10.267  0.5204E+00  0.1754E+02
  10.277  0.5189E+00  0.1755E+02
  10.287  0.5174E+00  0.1755E+02
  10.297  0.5159E+00  0.1756E+02
  10.307  0.5144E+00  0.1756E+02
  10.317  0.5129E+00  0.1757E+02
  10.327  0.5114E+00  0.1758E+02
  10.337  0.5099E+00  0.1758E+02
  10.347  0.5085E+00  0.1759E+02
  10.357  0.5070E+00  0.1759E+02
  10.367  0.5057E+00  0.1760E+02
  10.377  0.5043E+00  0.1760E+02
  10.387  0.5030E+00  0.1761E+02
  10.397  0.5017E+00  0.1761E+02
  10.407  0.5003E+00  0.1762E+02
  10.417  0.4990E+00  0.1762E+02
  10.427  0.4978E+00  0.1763E+02
  10.437  0.4965E+00  0.1763E+02
  10.447  0.4952E+00  0.1764E+02
  10.457  0.4939E+00  0.1764E+02
  10.467  0.4927E+00  0.1765E+02
  10.477  0.4914E+00  0.1765E+02
  10.487  0.4902E+00  0.1766E+02
  10.497  0.4879E+00  0.1766E+02
  10.507  0.4869E+00  0.1766E+02
  10.517  0.4859E+00  0.1767E+02
  10.527  0.4848E+00  0.1767E+02
  10.537  0.4838E+00  0.1768E+02
  10.547  0.4828E+00  0.1768E+02
  10.557  0.4818E+00  0.1769E+02
  10.567  0.4807E+00  0.1769E+02
  10.577  0.4797E+00  0.1770E+02
  10.587  0.4787E+00  0.1770E+02
  10.597  0.4776E+00  0.1771E+02
  10.607  0.4766E+00  0.1771E+02
  10.617  0.4756E+00  0.1772E+02
  10.627  0.4745E+00  0.1772E+02
  10.637  0.4735E+00  0.1773E+02
  10.647  0.4725E+00  0.1773E+02
  10.657  0.4705E+00  0.1774E+02
  10.667  0.4694E+00  0.1774E+02
  10.677  0.4683E+00  0.1775E+02
  10.687  0.4672E+00  0.1775E+02
  10.697  0.4661E+00  0.1776E+02
  10.707  0.4651E+00  0.1776E+02
  10.717  0.4641E+00  0.1776E+02
  10.727  0.4630E+00  0.1777E+02
  10.737  0.4620E+00  0.1777E+02
  10.747  0.4610E+00  0.1778E+02
  10.757  0.4600E+00  0.1778E+02
  10.767  0.4590E+00  0.1779E+02
  10.777  0.4580E+00  0.1779E+02
  10.787  0.4571E+00  0.1780E+02
  10.797  0.4561E+00  0.1780E+02
  10.807  0.4551E+00  0.1781E+02
  10.817  0.4541E+00  0.1781E+02
  10.827  0.4532E+00  0.1782E+02
  10.837  0.4522E+00  0.1782E+02
  10.847  0.4513E+00  0.1782E+02
  10.857  0.4503E+00  0.1783E+02
  10.867  0.4494E+00  0.1783E+02
  10.877  0.4486E+00  0.1784E+02
  10.887  0.4477E+00  0.1784E+02
  10.897  0.4467E+00  0.1785E+02
  10.907  0.4456E+00  0.1785E+02
  10.917  0.4445E+00  0.1786E+02
  10.927  0.4435E+00  0.1786E+02
  10.937  0.4429E+00  0.1786E+02
  10.947  0.4424E+00  0.1787E+02
  10.957  0.4418E+00  0.1787E+02
  10.967  0.4412E+00  0.1788E+02
  10.977  0.4406E+00  0.1788E+02
  10.987  0.4401E+00  0.1789E+02
  10.997  0.4395E+00  0.1789E+02
  11.007  0.4389E+00  0.1790E+02
  11.017  0.4384E+00  0.1790E+02
  11.027  0.4378E+00  0.1790E+02
  11.037  0.4372E+00  0.1791E+02
  11.047  0.4367E+00  0.1791E+02
  11.057  0.4361E+00  0.1792E+02
  11.067  0.4355E+00  0.1792E+02
  11.077  0.4350E+00  0.1793E+02
  11.087  0.4344E+00  0.1793E+02
  11.097  0.4338E+00  0.1793E+02
  11.107  0.4332E+00  0.1794E+02
  11.117  0.4327E+00  0.1794E+02
  11.127  0.4321E+00  0.1795E+02
  11.137  0.4315E+00  0.1795E+02
  11.147  0.4310E+00  0.1796E+02
  11.157  0.4304E+00  0.1796E+02
  11.167  0.4298E+00  0.1796E+02
  11.177  0.4293E+00  0.1797E+02
  11.187  0.4287E+00  0.1797E+02
  11.197  0.4281E+00  0.1798E+02
  11.207  0.4275E+00  0.1798E+02
  11.217  0.4270E+00  0.1799E+02
  11.227  0.4264E+00  0.1799E+02
  11.237  0.4258E+00  0.1799E+02
  11.247  0.4253E+00  0.1800E+02
  11.257  0.4247E+00  0.1800E+02
  11.267  0.4245E+00  0.1801E+02
  11.277  0.4246E+00  0.1801E+02
  11.287  0.4251E+00  0.1802E+02
  11.297  0.4259E+00  0.1802E+02
  11.307  0.4271E+00  0.1802E+02
  11.317  0.4286E+00  0.1803E+02
  11.327  0.4305E+00  0.1803E+02
  11.337  0.4328E+00  0.1804E+02
  11.347  0.4353E+00  0.1804E+02
  11.357  0.4383E+00  0.1805E+02
  11.367  0.4416E+00  0.1805E+02
  11.377  0.4452E+00  0.1806E+02
  11.387  0.4476E+00  0.1806E+02
  11.397  0.4493E+00  0.1806E+02
  11.407  0.4510E+00  0.1807E+02
  11.417  0.4528E+00  0.1807E+02
  11.427  0.4546E+00  0.1808E+02
  11.437  0.4564E+00  0.1808E+02
  11.447  0.4582E+00  0.1809E+02
  11.457  0.4600E+00  0.1809E+02
  11.467  0.4619E+00  0.1810E+02
  11.477  0.4637E+00  0.1810E+02
  11.487  0.4656E+00  0.1811E+02
  11.497  0.4675E+00  0.1811E+02
  11.507  0.4695E+00  0.1811E+02
  11.517  0.4715E+00  0.1812E+02
  11.527  0.4733E+00  0.1812E+02
  11.537  0.4750E+00  0.1813E+02
  11.547  0.4765E+00  0.1813E+02
  11.557  0.4778E+00  0.1814E+02
  11.567  0.4788E+00  0.1814E+02
  11.577  0.4797E+00  0.1815E+02
  11.587  0.4803E+00  0.1815E+02
  11.597  0.4808E+00  0.1816E+02
  11.607  0.4810E+00  0.1816E+02
  11.617  0.4811E+00  0.1817E+02
  11.627  0.4809E+00  0.1817E+02
  11.637  0.4805E+00  0.1818E+02
  11.647  0.4804E+00  0.1818E+02
  11.657  0.4812E+00  0.1819E+02
  11.667  0.4819E+00  0.1819E+02
  11.677  0.4826E+00  0.1820E+02
  11.687  0.4832E+00  0.1820E+02
  11.697  0.4837E+00  0.1821E+02
  11.707  0.4841E+00  0.1821E+02
  11.717  0.4845E+00  0.1822E+02
  11.727  0.4849E+00  0.1822E+02
  11.737  0.4851E+00  0.1822E+02
  11.747  0.4854E+00  0.1823E+02
  11.757  0.4855E+00  0.1823E+02
  11.767  0.4856E+00  0.1824E+02
  11.777  0.4857E+00  0.1824E+02
  11.787  0.4858E+00  0.1825E+02
  11.797  0.4860E+00  0.1825E+02
  11.807  0.4861E+00  0.1826E+02
  11.817  0.4863E+00  0.1826E+02
  11.827  0.4864E+00  0.1827E+02
  11.837  0.4866E+00  0.1827E+02
  11.847  0.4868E+00  0.1828E+02
  11.857  0.4869E+00  0.1828E+02
  11.867  0.4871E+00  0.1829E+02
  11.877  0.4872E+00  0.1829E+02
  11.887  0.4874E+00  0.1830E+02
  11.897  0.4875E+00  0.1830E+02
  11.907  0.4876E+00  0.1831E+02
  11.917  0.4878E+00  0.1831E+02
  11.927  0.4880E+00  0.1832E+02
  11.937  0.4883E+00  0.1832E+02
  11.947  0.4886E+00  0.1833E+02
  11.957  0.4889E+00  0.1833E+02
  11.967  0.4893E+00  0.1834E+02
  11.977  0.4897E+00  0.1834E+02
  11.987  0.4902E+00  0.1835E+02
  11.997  0.4907E+00  0.1835E+02
  12.007  0.4913E+00  0.1836E+02
  12.017  0.4919E+00  0.1836E+02
  12.027  0.4926E+00  0.1837E+02
  12.037  0.4933E+00  0.1837E+02
  12.047  0.4940E+00  0.1838E+02
  12.057  0.4947E+00  0.1838E+02
  12.067  0.4953E+00  0.1839E+02
  12.077  0.4960E+00  0.1839E+02
  12.087  0.4967E+00  0.1840E+02
  12.097  0.4973E+00  0.1840E+02
  12.107  0.4980E+00  0.1841E+02
  12.117  0.4987E+00  0.1841E+02
  12.127  0.4993E+00  0.1842E+02
  12.137  0.5000E+00  0.1842E+02
  12.147  0.5007E+00  0.1843E+02
  12.157  0.5013E+00  0.1843E+02
  12.167  0.5018E+00  0.1844E+02
  12.177  0.5022E+00  0.1844E+02
  12.187  0.5027E+00  0.1845E+02
  12.197  0.5031E+00  0.1845E+02
  12.207  0.5035E+00  0.1846E+02
  12.217  0.5040E+00  0.1846E+02
  12.227  0.5044E+00  0.1847E+02
  12.237  0.5048E+00  0.1847E+02
  12.247  0.5052E+00  0.1848E+02
  12.257  0.5057E+00  0.1848E+02
  12.267  0.5061E+00  0.1849E+02
  12.277  0.5065E+00  0.1849E+02
  12.287  0.5069E+00  0.1850E+02
  12.297  0.5072E+00  0.1850E+02
  12.307  0.5075E+00  0.1851E+02
  12.317  0.5077E+00  0.1851E+02
  12.327  0.5080E+00  0.1852E+02
  12.337  0.5081E+00  0.1852E+02
  12.347  0.5083E+00  0.1853E+02
  12.357  0.5084E+00  0.1853E+02
  12.367  0.5085E+00  0.1854E+02
  12.377  0.5086E+00  0.1854E+02
  12.387  0.5086E+00  0.1855E+02
  12.397  0.5088E+00  0.1855E+02
  12.407  0.5090E+00  0.1856E+02
  12.417  0.5094E+00  0.1856E+02
  12.427  0.5098E+00  0.1857E+02
  12.437  0.5102E+00  0.1857E+02
  12.447  0.5106E+00  0.1858E+02
  12.457  0.5111E+00  0.1858E+02
  12.467  0.5115E+00  0.1859E+02
  12.477  0.5119E+00  0.1859E+02
  12.487  0.5124E+00  0.1860E+02
  12.497  0.5129E+00  0.1860E+02
  12.507  0.5133E+00  0.1861E+02
  12.517  0.5138E+00  0.1861E+02
  12.527  0.5143E+00  0.1862E+02
  12.537  0.5148E+00  0.1862E+02
  12.547  0.5154E+00  0.1863E+02
  12.557  0.5164E+00  0.1863E+02
  12.567  0.5180E+00  0.1864E+02
  12.577  0.5199E+00  0.1864E+02
  12.587  0.5219E+00  0.1865E+02
  12.597  0.5240E+00  0.1866E+02
  12.607  0.5262E+00  0.1866E+02
  12.617  0.5284E+00  0.1867E+02
  12.627  0.5308E+00  0.1867E+02
  12.637  0.5332E+00  0.1868E+02
  12.647  0.5357E+00  0.1868E+02
  12.657  0.5382E+00  0.1869E+02
  12.667  0.5408E+00  0.1869E+02
  12.677  0.5434E+00  0.1870E+02
  12.687  0.5460E+00  0.1870E+02
  12.697  0.5487E+00  0.1871E+02
  12.707  0.5513E+00  0.1871E+02
  12.717  0.5540E+00  0.1872E+02
  12.727  0.5566E+00  0.1873E+02
  12.737  0.5593E+00  0.1873E+02
  12.747  0.5620E+00  0.1874E+02
  12.757  0.5646E+00  0.1874E+02
  12.767  0.5673E+00  0.1875E+02
  12.777  0.5700E+00  0.1875E+02
  12.787  0.5727E+00  0.1876E+02
  12.797  0.5754E+00  0.1876E+02
  12.807  0.5782E+00  0.1877E+02
  12.817  0.5812E+00  0.1878E+02
  12.827  0.5844E+00  0.1878E+02
  12.837  0.5878E+00  0.1879E+02
  12.847  0.5914E+00  0.1879E+02
  12.857  0.5953E+00  0.1880E+02
  12.867  0.5994E+00  0.1881E+02
  12.877  0.6036E+00  0.1881E+02
  12.887  0.6082E+00  0.1882E+02
  12.897  0.6129E+00  0.1882E+02
  12.907  0.6178E+00  0.1883E+02
  12.917  0.6230E+00  0.1884E+02
  12.927  0.6283E+00  0.1884E+02
  12.937  0.6335E+00  0.1885E+02
  12.947  0.6383E+00  0.1886E+02
  12.957  0.6428E+00  0.1886E+02
  12.967  0.6471E+00  0.1887E+02
  12.977  0.6510E+00  0.1887E+02
  12.987  0.6546E+00  0.1888E+02
  12.997  0.6579E+00  0.1889E+02
  13.007  0.6609E+00  0.1889E+02
  13.017  0.6636E+00  0.1890E+02
  13.027  0.6659E+00  0.1891E+02
  13.037  0.6680E+00  0.1891E+02
  13.047  0.6698E+00  0.1892E+02
  13.057  0.6714E+00  0.1893E+02
  13.067  0.6732E+00  0.1893E+02
  13.077  0.6751E+00  0.1894E+02
  13.087  0.6771E+00  0.1895E+02
  13.097  0.6793E+00  0.1895E+02
  13.107  0.6815E+00  0.1896E+02
  13.117  0.6839E+00  0.1897E+02
  13.127  0.6864E+00  0.1898E+02
  13.137  0.6890E+00  0.1898E+02
  13.147  0.6917E+00  0.1899E+02
  13.157  0.6945E+00  0.1900E+02
  13.167  0.6972E+00  0.1900E+02
  13.177  0.6956E+00  0.1901E+02
  13.187  0.6877E+00  0.1902E+02
  13.197  0.6701E+00  0.1902E+02
  13.207  0.6262E+00  0.1903E+02
  13.217  0.5857E+00  0.1904E+02
  13.227  0.5696E+00  0.1904E+02
  13.237  0.5601E+00  0.1905E+02
  13.247  0.5513E+00  0.1905E+02
  13.257  0.5433E+00  0.1906E+02
  13.267  0.5360E+00  0.1906E+02
  13.277  0.5295E+00  0.1907E+02
  13.287  0.5238E+00  0.1907E+02
  13.297  0.5195E+00  0.1908E+02
  13.307  0.5167E+00  0.1908E+02
  13.317  0.5141E+00  0.1909E+02
  13.327  0.5115E+00  0.1910E+02
  13.337  0.5089E+00  0.1910E+02
  13.347  0.5065E+00  0.1911E+02
  13.357  0.5040E+00  0.1911E+02
  13.367  0.5017E+00  0.1912E+02
  13.377  0.5024E+00  0.1912E+02
  13.387  0.5058E+00  0.1913E+02
  13.397  0.5091E+00  0.1913E+02
  13.407  0.5124E+00  0.1914E+02
  13.417  0.5152E+00  0.1914E+02
  13.427  0.5175E+00  0.1915E+02
  13.437  0.5199E+00  0.1915E+02
  13.447  0.5223E+00  0.1916E+02
  13.457  0.5247E+00  0.1916E+02
  13.467  0.5271E+00  0.1917E+02
  13.477  0.5293E+00  0.1917E+02
  13.487  0.5314E+00  0.1918E+02
  13.497  0.4958E+00  0.1918E+02
  13.507  0.4932E+00  0.1919E+02
  13.517  0.4906E+00  0.1919E+02
  13.527  0.4880E+00  0.1920E+02
  13.537  0.4853E+00  0.1920E+02
  13.547  0.4826E+00  0.1921E+02
  13.557  0.4799E+00  0.1921E+02
  13.567  0.4773E+00  0.1922E+02
  13.577  0.4746E+00  0.1922E+02
  13.587  0.4719E+00  0.1923E+02
  13.597  0.4692E+00  0.1923E+02
  13.607  0.4665E+00  0.1924E+02
  13.617  0.4637E+00  0.1924E+02
  13.627  0.4610E+00  0.1924E+02
  13.637  0.4582E+00  0.1925E+02
  13.647  0.4553E+00  0.1925E+02
  13.657  0.4525E+00  0.1926E+02
  13.667  0.4497E+00  0.1926E+02
  13.677  0.4469E+00  0.1927E+02
  13.687  0.4441E+00  0.1927E+02
  13.697  0.4412E+00  0.1928E+02
  13.707  0.4387E+00  0.1928E+02
  13.717  0.4362E+00  0.1929E+02
  13.727  0.4328E+00  0.1929E+02
  13.737  0.4291E+00  0.1929E+02
  13.747  0.4253E+00  0.1930E+02
  13.757  0.4208E+00  0.1930E+02
  13.767  0.4164E+00  0.1931E+02
  13.777  0.4121E+00  0.1931E+02
  13.787  0.4083E+00  0.1931E+02
  13.797  0.4061E+00  0.1932E+02
  13.807  0.4042E+00  0.1932E+02
  13.817  0.4026E+00  0.1933E+02
  13.827  0.4023E+00  0.1933E+02
  13.837  0.4032E+00  0.1933E+02
  13.847  0.4048E+00  0.1934E+02
  13.857  0.4066E+00  0.1934E+02
  13.867  0.4085E+00  0.1935E+02
  13.877  0.4107E+00  0.1935E+02
  13.887  0.4131E+00  0.1936E+02
  13.897  0.4157E+00  0.1936E+02
  13.907  0.4185E+00  0.1936E+02
  13.917  0.4215E+00  0.1937E+02
  13.927  0.4247E+00  0.1937E+02
  13.937  0.4281E+00  0.1938E+02
  13.947  0.4308E+00  0.1938E+02
  13.957  0.4327E+00  0.1938E+02
  13.967  0.4346E+00  0.1939E+02
  13.977  0.4366E+00  0.1939E+02
  13.987  0.4387E+00  0.1940E+02
  13.997  0.4409E+00  0.1940E+02
  14.007  0.4432E+00  0.1941E+02
  14.017  0.4456E+00  0.1941E+02
  14.027  0.4480E+00  0.1942E+02
  14.037  0.4506E+00  0.1942E+02
  14.047  0.4533E+00  0.1942E+02
  14.057  0.4560E+00  0.1943E+02
  14.067  0.4588E+00  0.1943E+02
  14.077  0.4617E+00  0.1944E+02
  14.087  0.4647E+00  0.1944E+02
  14.097  0.4678E+00  0.1945E+02
  14.107  0.4709E+00  0.1945E+02
  14.117  0.4742E+00  0.1946E+02
  14.127  0.4775E+00  0.1946E+02
  14.137  0.4809E+00  0.1947E+02
  14.147  0.4844E+00  0.1947E+02
  14.157  0.4880E+00  0.1948E+02
  14.167  0.4917E+00  0.1948E+02
  14.177  0.4954E+00  0.1949E+02
  14.187  0.4970E+00  0.1949E+02
  14.197  0.5026E+00  0.1950E+02
  14.207  0.5089E+00  0.1950E+02
  14.217  0.5158E+00  0.1951E+02
  14.227  0.5233E+00  0.1951E+02
  14.237  0.5314E+00  0.1952E+02
  14.247  0.5402E+00  0.1952E+02
  14.257  0.5496E+00  0.1953E+02
  14.267  0.5596E+00  0.1953E+02
  14.277  0.5702E+00  0.1954E+02
  14.287  0.5815E+00  0.1954E+02
  14.297  0.5934E+00  0.1955E+02
  14.307  0.6053E+00  0.1956E+02
  14.317  0.6162E+00  0.1956E+02
  14.327  0.6260E+00  0.1957E+02
  14.337  0.6335E+00  0.1958E+02
  14.347  0.6375E+00  0.1958E+02
  14.357  0.6381E+00  0.1959E+02
  14.367  0.6353E+00  0.1959E+02
  14.377  0.6269E+00  0.1960E+02
  14.387  0.6197E+00  0.1961E+02
  14.397  0.6275E+00  0.1961E+02
  14.407  0.6430E+00  0.1962E+02
  14.417  0.6549E+00  0.1963E+02
  14.427  0.6647E+00  0.1963E+02
  14.437  0.6761E+00  0.1964E+02
  14.447  0.6892E+00  0.1965E+02
  14.457  0.7039E+00  0.1965E+02
  14.467  0.7203E+00  0.1966E+02
  14.477  0.7368E+00  0.1967E+02
  14.487  0.7542E+00  0.1967E+02
  14.497  0.7729E+00  0.1968E+02
  14.507  0.7926E+00  0.1969E+02
  14.517  0.8118E+00  0.1970E+02
  14.527  0.8304E+00  0.1971E+02
  14.537  0.8488E+00  0.1971E+02
  14.547  0.8670E+00  0.1972E+02
  14.557  0.9030E+00  0.1973E+02
  14.567  0.9207E+00  0.1974E+02
  14.577  0.9363E+00  0.1975E+02
  14.587  0.9490E+00  0.1976E+02
  14.597  0.9609E+00  0.1977E+02
  14.607  0.9725E+00  0.1978E+02
  14.617  0.9837E+00  0.1979E+02
  14.627  0.9944E+00  0.1980E+02
  14.637  0.1005E+01  0.1981E+02
  14.647  0.1014E+01  0.1982E+02
  14.657  0.1042E+01  0.1983E+02
  14.667  0.1058E+01  0.1984E+02
  14.677  0.1073E+01  0.1985E+02
  14.687  0.1090E+01  0.1986E+02
  14.697  0.1106E+01  0.1987E+02
  14.707  0.1129E+01  0.1988E+02
  14.717  0.1155E+01  0.1989E+02
  14.727  0.1182E+01  0.1991E+02
  14.737  0.1210E+01  0.1992E+02
  14.747  0.1239E+01  0.1993E+02
  14.757  0.1272E+01  0.1994E+02
  14.767  0.1306E+01  0.1996E+02
  14.777  0.1342E+01  0.1997E+02
  14.787  0.1382E+01  0.1998E+02
  14.797  0.1427E+01  0.2000E+02
  14.807  0.1430E+01  0.2001E+02
  14.817  0.1483E+01  0.2003E+02
  14.827  0.1544E+01  0.2004E+02
  14.837  0.1602E+01  0.2006E+02
  14.847  0.1649E+01  0.2007E+02
  14.857  0.1690E+01  0.2009E+02
  14.867  0.1726E+01  0.2011E+02
  14.877  0.1760E+01  0.2012E+02
  14.887  0.1791E+01  0.2014E+02
  14.897  0.1816E+01  0.2016E+02
  14.907  0.1832E+01  0.2018E+02
  14.917  0.1842E+01  0.2020E+02
  14.927  0.1851E+01  0.2021E+02
  14.937  0.1859E+01  0.2023E+02
  14.947  0.1866E+01  0.2025E+02
  14.957  0.1874E+01  0.2027E+02
  14.967  0.1882E+01  0.2029E+02
  14.977  0.1902E+01  0.2031E+02
  14.987  0.1932E+01  0.2033E+02
  14.997  0.1960E+01  0.2035E+02
  15.007  0.1984E+01  0.2037E+02
  15.017  0.1984E+01  0.2039E+02
  15.027  0.1982E+01  0.2041E+02
  15.037  0.1982E+01  0.2043E+02
  15.047  0.1982E+01  0.2045E+02
  15.057  0.1982E+01  0.2047E+02
  15.067  0.1982E+01  0.2049E+02
  15.077  0.1986E+01  0.2051E+02
  15.087  0.1992E+01  0.2053E+02
  15.097  0.1998E+01  0.2055E+02
  15.107  0.2002E+01  0.2057E+02
  15.117  0.2002E+01  0.2059E+02
  15.127  0.1999E+01  0.2061E+02
  15.137  0.1996E+01  0.2063E+02
  15.147  0.1992E+01  0.2065E+02
  15.157  0.1987E+01  0.2067E+02
  15.167  0.1984E+01  0.2069E+02
  15.177  0.1981E+01  0.2070E+02
  15.187  0.1979E+01  0.2072E+02
  15.197  0.1977E+01  0.2074E+02
  15.207  0.1974E+01  0.2076E+02
  15.217  0.1972E+01  0.2078E+02
  15.227  0.1969E+01  0.2080E+02
  15.237  0.1958E+01  0.2082E+02
  15.247  0.1942E+01  0.2084E+02
  15.257  0.1923E+01  0.2086E+02
  15.267  0.1900E+01  0.2088E+02
  15.277  0.1875E+01  0.2090E+02
  15.287  0.1843E+01  0.2092E+02
  15.297  0.1806E+01  0.2094E+02
  15.307  0.1764E+01  0.2095E+02
  15.317  0.1722E+01  0.2097E+02
  15.327  0.1688E+01  0.2099E+02
  15.337  0.1662E+01  0.2101E+02
  15.347  0.1642E+01  0.2102E+02
  15.357  0.1625E+01  0.2104E+02
  15.367  0.1569E+01  0.2105E+02
  15.377  0.1559E+01  0.2107E+02
  15.387  0.1551E+01  0.2109E+02
  15.397  0.1545E+01  0.2110E+02
  15.407  0.1541E+01  0.2112E+02
  15.417  0.1537E+01  0.2113E+02
  15.427  0.1534E+01  0.2115E+02
  15.437  0.1531E+01  0.2116E+02
  15.447  0.1528E+01  0.2118E+02
  15.457  0.1527E+01  0.2119E+02
  15.467  0.1528E+01  0.2121E+02
  15.477  0.1530E+01  0.2122E+02
  15.487  0.1534E+01  0.2124E+02
  15.497  0.1652E+01  0.2126E+02
  15.507  0.1947E+01  0.2127E+02
  15.517  0.2445E+01  0.2130E+02
  15.527  0.2726E+01  0.2132E+02
  15.537  0.2390E+01  0.2135E+02
  15.547  0.2452E+01  0.2137E+02
  15.557  0.2518E+01  0.2140E+02
  15.567  0.2580E+01  0.2142E+02
  15.577  0.2546E+01  0.2145E+02
  15.587  0.2478E+01  0.2147E+02
  15.597  0.2490E+01  0.2150E+02
  15.607  0.2496E+01  0.2152E+02
  15.617  0.2586E+01  0.2155E+02
  15.627  0.2653E+01  0.2157E+02
  15.637  0.2706E+01  0.2160E+02
  15.647  0.2758E+01  0.2163E+02
  15.657  0.2782E+01  0.2165E+02
  15.667  0.2709E+01  0.2168E+02
  15.677  0.2640E+01  0.2171E+02
  15.687  0.2589E+01  0.2174E+02
  15.697  0.2544E+01  0.2176E+02
  15.707  0.2498E+01  0.2179E+02
  15.717  0.2452E+01  0.2181E+02
  15.727  0.2406E+01  0.2184E+02
  15.737  0.2359E+01  0.2186E+02
  15.747  0.2311E+01  0.2188E+02
  15.757  0.2204E+01  0.2190E+02
  15.767  0.2078E+01  0.2193E+02
  15.777  0.1834E+01  0.2195E+02
  15.787  0.1813E+01  0.2196E+02
  15.797  0.1801E+01  0.2198E+02
  15.807  0.1790E+01  0.2200E+02
  15.817  0.1778E+01  0.2202E+02
  15.827  0.1766E+01  0.2204E+02
  15.837  0.1754E+01  0.2205E+02
  15.847  0.1742E+01  0.2207E+02
  15.857  0.1729E+01  0.2209E+02
  15.867  0.1717E+01  0.2211E+02
  15.877  0.1626E+01  0.2212E+02
  15.887  0.1575E+01  0.2214E+02
  15.897  0.1525E+01  0.2215E+02
  15.907  0.1476E+01  0.2217E+02
  15.917  0.1486E+01  0.2218E+02
  15.927  0.1584E+01  0.2220E+02
  15.937  0.1273E+01  0.2221E+02
  15.947  0.1225E+01  0.2223E+02
  15.957  0.1133E+01  0.2224E+02
  15.967  0.1085E+01  0.2225E+02
  15.977  0.1083E+01  0.2226E+02
  15.987  0.1080E+01  0.2227E+02
  15.997  0.1078E+01  0.2228E+02
  16.007  0.1075E+01  0.2229E+02
  16.017  0.1072E+01  0.2230E+02
  16.027  0.1070E+01  0.2231E+02
  16.037  0.1067E+01  0.2233E+02
  16.047  0.1064E+01  0.2234E+02
  16.057  0.1062E+01  0.2235E+02
  16.067  0.1059E+01  0.2236E+02
  16.077  0.1056E+01  0.2237E+02
  16.087  0.1052E+01  0.2238E+02
  16.097  0.1048E+01  0.2239E+02
  16.107  0.1045E+01  0.2240E+02
  16.117  0.1041E+01  0.2241E+02
  16.127  0.1038E+01  0.2242E+02
  16.137  0.1035E+01  0.2243E+02
  16.147  0.1031E+01  0.2244E+02
  16.157  0.1028E+01  0.2245E+02
  16.167  0.1025E+01  0.2246E+02
  16.177  0.1031E+01  0.2247E+02
  16.187  0.1059E+01  0.2248E+02
  16.197  0.1085E+01  0.2249E+02
  16.207  0.1106E+01  0.2250E+02
  16.217  0.1117E+01  0.2251E+02
  16.227  0.1127E+01  0.2253E+02
  16.237  0.1136E+01  0.2254E+02
  16.247  0.1146E+01  0.2255E+02
  16.257  0.1154E+01  0.2256E+02
  16.267  0.1163E+01  0.2257E+02
  16.277  0.1156E+01  0.2258E+02
  16.287  0.1137E+01  0.2260E+02
  16.297  0.1119E+01  0.2261E+02
  16.307  0.1102E+01  0.2262E+02
  16.317  0.1084E+01  0.2263E+02
  16.327  0.1068E+01  0.2264E+02
  16.337  0.1051E+01  0.2265E+02
  16.347  0.1036E+01  0.2266E+02
  16.357  0.1024E+01  0.2267E+02
  16.367  0.1007E+01  0.2268E+02
  16.377  0.9894E+00  0.2269E+02
  16.387  0.9718E+00  0.2270E+02
  16.397  0.9543E+00  0.2271E+02
  16.407  0.9369E+00  0.2272E+02
  16.417  0.9196E+00  0.2273E+02
  16.427  0.9044E+00  0.2274E+02
  16.437  0.8995E+00  0.2275E+02
  16.447  0.9000E+00  0.2276E+02
  16.457  0.9012E+00  0.2276E+02
  16.467  0.8988E+00  0.2277E+02
  16.477  0.8975E+00  0.2278E+02
  16.487  0.8961E+00  0.2279E+02
  16.497  0.8946E+00  0.2280E+02
  16.507  0.8932E+00  0.2281E+02
  16.517  0.8917E+00  0.2282E+02
  16.527  0.8899E+00  0.2283E+02
  16.537  0.8868E+00  0.2284E+02
  16.547  0.8836E+00  0.2285E+02
  16.557  0.8805E+00  0.2285E+02
  16.567  0.8776E+00  0.2286E+02
  16.577  0.8743E+00  0.2287E+02
  16.587  0.8709E+00  0.2288E+02
  16.597  0.8677E+00  0.2289E+02
  16.607  0.8651E+00  0.2290E+02
  16.617  0.8236E+00  0.2291E+02
  16.627  0.7710E+00  0.2291E+02
  16.637  0.7310E+00  0.2292E+02
  16.647  0.7155E+00  0.2293E+02
  16.657  0.7100E+00  0.2294E+02
  16.667  0.7046E+00  0.2294E+02
  16.677  0.6992E+00  0.2295E+02
  16.687  0.6939E+00  0.2296E+02
  16.697  0.6886E+00  0.2296E+02
  16.707  0.6834E+00  0.2297E+02
  16.717  0.6782E+00  0.2298E+02
  16.727  0.6731E+00  0.2298E+02
  16.737  0.6680E+00  0.2299E+02
  16.747  0.6629E+00  0.2300E+02
  16.757  0.6580E+00  0.2300E+02
  16.767  0.6530E+00  0.2301E+02
  16.777  0.6481E+00  0.2302E+02
  16.787  0.6433E+00  0.2302E+02
  16.797  0.6385E+00  0.2303E+02
  16.807  0.6338E+00  0.2304E+02
  16.817  0.6291E+00  0.2304E+02
  16.827  0.6244E+00  0.2305E+02
  16.837  0.6198E+00  0.2306E+02
  16.847  0.6153E+00  0.2306E+02
  16.857  0.6108E+00  0.2307E+02
  16.867  0.6063E+00  0.2307E+02
  16.877  0.6019E+00  0.2308E+02
  16.887  0.5976E+00  0.2309E+02
  16.897  0.5933E+00  0.2309E+02
  16.907  0.5890E+00  0.2310E+02
  16.917  0.5848E+00  0.2310E+02
  16.927  0.5807E+00  0.2311E+02
  16.937  0.5766E+00  0.2312E+02
  16.947  0.5725E+00  0.2312E+02
  16.957  0.5685E+00  0.2313E+02
  16.967  0.5645E+00  0.2313E+02
  16.977  0.5606E+00  0.2314E+02
  16.987  0.5568E+00  0.2314E+02
  16.997  0.5530E+00  0.2315E+02
  17.007  0.5492E+00  0.2315E+02
  17.017  0.5455E+00  0.2316E+02
  17.027  0.5418E+00  0.2317E+02
  17.037  0.5382E+00  0.2317E+02
  17.047  0.5346E+00  0.2318E+02
  17.057  0.5311E+00  0.2318E+02
  17.067  0.5276E+00  0.2319E+02
  17.077  0.5242E+00  0.2319E+02
  17.087  0.5208E+00  0.2320E+02
  17.097  0.5175E+00  0.2320E+02
  17.107  0.5189E+00  0.2321E+02
  17.117  0.5223E+00  0.2321E+02
  17.127  0.5269E+00  0.2322E+02
  17.137  0.5516E+00  0.2322E+02
  17.147  0.5584E+00  0.2323E+02
  17.157  0.5656E+00  0.2323E+02
  17.167  0.5734E+00  0.2324E+02
  17.177  0.5817E+00  0.2325E+02
  17.187  0.5905E+00  0.2325E+02
  17.197  0.5997E+00  0.2326E+02
  17.207  0.6095E+00  0.2326E+02
  17.217  0.6198E+00  0.2327E+02
  17.227  0.6307E+00  0.2328E+02
  17.237  0.6423E+00  0.2328E+02
  17.247  0.6545E+00  0.2329E+02
  17.257  0.6674E+00  0.2330E+02
  17.267  0.6814E+00  0.2330E+02
  17.277  0.6966E+00  0.2331E+02
  17.287  0.7136E+00  0.2332E+02
  17.297  0.7326E+00  0.2332E+02
  17.307  0.8109E+00  0.2333E+02
  17.317  0.8443E+00  0.2334E+02
  17.327  0.8733E+00  0.2335E+02
  17.337  0.9009E+00  0.2336E+02
  17.347  0.9270E+00  0.2337E+02
  17.357  0.9517E+00  0.2338E+02
  17.367  0.9725E+00  0.2339E+02
  17.377  0.9946E+00  0.2340E+02
  17.387  0.1014E+01  0.2341E+02
  17.397  0.1031E+01  0.2342E+02
  17.407  0.1044E+01  0.2343E+02
  17.417  0.1052E+01  0.2344E+02
  17.427  0.1056E+01  0.2345E+02
  17.437  0.1056E+01  0.2346E+02
  17.447  0.1051E+01  0.2347E+02
  17.457  0.1043E+01  0.2348E+02
  17.467  0.1030E+01  0.2349E+02
  17.477  0.1013E+01  0.2350E+02
  17.487  0.9956E+00  0.2351E+02
  17.497  0.9934E+00  0.2352E+02
  17.507  0.9963E+00  0.2353E+02
  17.517  0.9989E+00  0.2354E+02
  17.527  0.9983E+00  0.2355E+02
  17.537  0.9947E+00  0.2356E+02
  17.547  0.9880E+00  0.2357E+02
  17.557  0.9782E+00  0.2358E+02
  17.567  0.9653E+00  0.2359E+02
  17.577  0.9440E+00  0.2360E+02
  17.587  0.9161E+00  0.2361E+02
  17.597  0.8872E+00  0.2362E+02
  17.607  0.8572E+00  0.2363E+02
  17.617  0.8335E+00  0.2363E+02
  17.627  0.1099E+01  0.2364E+02
  17.637  0.1437E+01  0.2366E+02
  17.647  0.1066E+01  0.2367E+02
  17.657  0.8864E+00  0.2368E+02
  17.667  0.7779E+00  0.2369E+02
  17.677  0.7587E+00  0.2369E+02
  17.687  0.7414E+00  0.2370E+02
  17.697  0.7259E+00  0.2371E+02
  17.707  0.7123E+00  0.2372E+02
  17.717  0.7007E+00  0.2372E+02
  17.727  0.6909E+00  0.2373E+02
  17.737  0.6825E+00  0.2374E+02
  17.747  0.6706E+00  0.2374E+02
  17.757  0.6551E+00  0.2375E+02
  17.767  0.6421E+00  0.2376E+02
  17.777  0.6317E+00  0.2376E+02
  17.787  0.6232E+00  0.2377E+02
  17.797  0.6181E+00  0.2378E+02
  17.807  0.6208E+00  0.2378E+02
  17.817  0.6247E+00  0.2379E+02
  17.827  0.6299E+00  0.2379E+02
  17.837  0.6363E+00  0.2380E+02
  17.847  0.6426E+00  0.2381E+02
  17.857  0.6487E+00  0.2381E+02
  17.867  0.6546E+00  0.2382E+02
  17.877  0.6603E+00  0.2383E+02
  17.887  0.6656E+00  0.2383E+02
  17.897  0.6637E+00  0.2384E+02
  17.907  0.6522E+00  0.2385E+02
  17.917  0.6314E+00  0.2385E+02
  17.927  0.5043E+00  0.2386E+02
  17.937  0.4720E+00  0.2386E+02
  17.947  0.4457E+00  0.2387E+02
  17.957  0.4255E+00  0.2387E+02
  17.967  0.4113E+00  0.2388E+02
  17.977  0.4030E+00  0.2388E+02
  17.987  0.3965E+00  0.2388E+02
  17.997  0.3901E+00  0.2389E+02
  18.007  0.3837E+00  0.2389E+02
  18.017  0.3773E+00  0.2390E+02
  18.027  0.3710E+00  0.2390E+02
  18.037  0.3648E+00  0.2390E+02
  18.047  0.3586E+00  0.2391E+02
  18.057  0.3524E+00  0.2391E+02
  18.067  0.3463E+00  0.2391E+02
  18.077  0.3403E+00  0.2392E+02
  18.087  0.3343E+00  0.2392E+02
  18.097  0.3274E+00  0.2392E+02
  18.107  0.3200E+00  0.2393E+02
  18.117  0.3143E+00  0.2393E+02
  18.127  0.3084E+00  0.2393E+02
  18.137  0.3024E+00  0.2394E+02
  18.147  0.2962E+00  0.2394E+02
  18.157  0.2898E+00  0.2394E+02
  18.167  0.2832E+00  0.2395E+02
  18.177  0.2765E+00  0.2395E+02
  18.187  0.2697E+00  0.2395E+02
  18.197  0.2626E+00  0.2395E+02
  18.207  0.2554E+00  0.2396E+02
  18.217  0.2481E+00  0.2396E+02
  18.227  0.2406E+00  0.2396E+02
  18.237  0.2330E+00  0.2396E+02
  18.247  0.2254E+00  0.2397E+02
  18.257  0.2176E+00  0.2397E+02
  18.267  0.2097E+00  0.2397E+02
  18.277  0.2018E+00  0.2397E+02
  18.287  0.1937E+00  0.2397E+02
  18.297  0.1856E+00  0.2398E+02
  18.307  0.1773E+00  0.2398E+02
  18.317  0.1690E+00  0.2398E+02
  18.327  0.1606E+00  0.2398E+02
  18.337  0.1520E+00  0.2398E+02
  18.347  0.1434E+00  0.2398E+02
  18.357  0.1347E+00  0.2399E+02
  18.367  0.1258E+00  0.2399E+02
  18.377  0.1169E+00  0.2399E+02
  18.387  0.1103E+00  0.2399E+02
  18.397  0.1047E+00  0.2399E+02
  18.407  0.9902E-01  0.2399E+02
  18.417  0.9335E-01  0.2399E+02
  18.427  0.8721E-01  0.2399E+02
  18.437  0.7840E-01  0.2399E+02
  18.447  0.6666E-01  0.2400E+02
  18.457  0.5199E-01  0.2400E+02
  18.467  0.4490E-01  0.2400E+02
  18.477  0.4146E-01  0.2400E+02
  18.487  0.3816E-01  0.2400E+02
  18.497  0.3500E-01  0.2400E+02
  18.507  0.3197E-01  0.2400E+02
  18.517  0.2908E-01  0.2400E+02
  18.527  0.2632E-01  0.2400E+02
  18.537  0.2371E-01  0.2400E+02
  18.547  0.2123E-01  0.2400E+02
  18.557  0.1889E-01  0.2400E+02
  18.567  0.1668E-01  0.2400E+02
  18.577  0.1461E-01  0.2400E+02
  18.587  0.1268E-01  0.2400E+02
  18.597  0.1088E-01  0.2400E+02
  18.607  0.9226E-02  0.2400E+02
  18.617  0.7705E-02  0.2400E+02
  18.627  0.6321E-02  0.2400E+02
  18.637  0.5074E-02  0.2400E+02
  18.647  0.3963E-02  0.2400E+02
  18.657  0.2990E-02  0.2400E+02
  18.667  0.2154E-02  0.2400E+02
  18.677  0.1454E-02  0.2400E+02
  18.687  0.8915E-03  0.2400E+02
  18.697  0.4659E-03  0.2400E+02
  18.707  0.1771E-03  0.2400E+02
  18.717  0.2535E-04  0.2400E+02
