# E (eV)  dos(E)    pdos(E)
  -5.835  0.000E+00  0.000E+00
  -5.825  0.796E-03  0.794E-03
  -5.815  0.319E-02  0.317E-02
  -5.805  0.717E-02  0.714E-02
  -5.795  0.127E-01  0.127E-01
  -5.785  0.199E-01  0.198E-01
  -5.775  0.287E-01  0.286E-01
  -5.765  0.390E-01  0.389E-01
  -5.755  0.510E-01  0.508E-01
  -5.745  0.645E-01  0.643E-01
  -5.735  0.796E-01  0.793E-01
  -5.725  0.964E-01  0.960E-01
  -5.715  0.115E+00  0.114E+00
  -5.705  0.135E+00  0.134E+00
  -5.695  0.128E+00  0.127E+00
  -5.685  0.121E+00  0.120E+00
  -5.675  0.117E+00  0.117E+00
  -5.665  0.118E+00  0.117E+00
  -5.655  0.121E+00  0.121E+00
  -5.645  0.125E+00  0.125E+00
  -5.635  0.129E+00  0.129E+00
  -5.625  0.134E+00  0.133E+00
  -5.615  0.138E+00  0.137E+00
  -5.605  0.142E+00  0.142E+00
  -5.595  0.146E+00  0.146E+00
  -5.585  0.151E+00  0.150E+00
  -5.575  0.155E+00  0.155E+00
  -5.565  0.160E+00  0.159E+00
  -5.555  0.164E+00  0.164E+00
  -5.545  0.169E+00  0.168E+00
  -5.535  0.174E+00  0.173E+00
  -5.525  0.178E+00  0.178E+00
  -5.515  0.183E+00  0.183E+00
  -5.505  0.188E+00  0.187E+00
  -5.495  0.193E+00  0.192E+00
  -5.485  0.198E+00  0.197E+00
  -5.475  0.203E+00  0.202E+00
  -5.465  0.207E+00  0.206E+00
  -5.455  0.211E+00  0.210E+00
  -5.445  0.215E+00  0.214E+00
  -5.435  0.218E+00  0.217E+00
  -5.425  0.221E+00  0.220E+00
  -5.415  0.223E+00  0.222E+00
  -5.405  0.225E+00  0.224E+00
  -5.395  0.227E+00  0.226E+00
  -5.385  0.228E+00  0.227E+00
  -5.375  0.229E+00  0.228E+00
  -5.365  0.230E+00  0.229E+00
  -5.355  0.230E+00  0.229E+00
  -5.345  0.232E+00  0.231E+00
  -5.335  0.233E+00  0.233E+00
  -5.325  0.236E+00  0.235E+00
  -5.315  0.238E+00  0.237E+00
  -5.305  0.241E+00  0.240E+00
  -5.295  0.244E+00  0.243E+00
  -5.285  0.246E+00  0.246E+00
  -5.275  0.249E+00  0.248E+00
  -5.265  0.252E+00  0.251E+00
  -5.255  0.255E+00  0.254E+00
  -5.245  0.258E+00  0.257E+00
  -5.235  0.260E+00  0.259E+00
  -5.225  0.263E+00  0.262E+00
  -5.215  0.266E+00  0.265E+00
  -5.205  0.269E+00  0.268E+00
  -5.195  0.272E+00  0.271E+00
  -5.185  0.275E+00  0.274E+00
  -5.175  0.278E+00  0.277E+00
  -5.165  0.281E+00  0.279E+00
  -5.155  0.283E+00  0.282E+00
  -5.145  0.286E+00  0.285E+00
  -5.135  0.289E+00  0.288E+00
  -5.125  0.292E+00  0.291E+00
  -5.115  0.295E+00  0.294E+00
  -5.105  0.298E+00  0.297E+00
  -5.095  0.301E+00  0.300E+00
  -5.085  0.304E+00  0.303E+00
  -5.075  0.307E+00  0.306E+00
  -5.065  0.310E+00  0.309E+00
  -5.055  0.313E+00  0.312E+00
  -5.045  0.316E+00  0.315E+00
  -5.035  0.319E+00  0.318E+00
  -5.025  0.323E+00  0.321E+00
  -5.015  0.324E+00  0.323E+00
  -5.005  0.325E+00  0.324E+00
  -4.995  0.326E+00  0.325E+00
  -4.985  0.327E+00  0.326E+00
  -4.975  0.329E+00  0.328E+00
  -4.965  0.331E+00  0.330E+00
  -4.955  0.333E+00  0.332E+00
  -4.945  0.335E+00  0.334E+00
  -4.935  0.337E+00  0.336E+00
  -4.925  0.339E+00  0.338E+00
  -4.915  0.341E+00  0.340E+00
  -4.905  0.343E+00  0.342E+00
  -4.895  0.345E+00  0.344E+00
  -4.885  0.347E+00  0.346E+00
  -4.875  0.349E+00  0.348E+00
  -4.865  0.351E+00  0.350E+00
  -4.855  0.353E+00  0.352E+00
  -4.845  0.355E+00  0.354E+00
  -4.835  0.357E+00  0.355E+00
  -4.825  0.359E+00  0.357E+00
  -4.815  0.361E+00  0.359E+00
  -4.805  0.363E+00  0.361E+00
  -4.795  0.365E+00  0.363E+00
  -4.785  0.367E+00  0.365E+00
  -4.775  0.369E+00  0.367E+00
  -4.765  0.371E+00  0.369E+00
  -4.755  0.373E+00  0.372E+00
  -4.745  0.375E+00  0.374E+00
  -4.735  0.377E+00  0.376E+00
  -4.725  0.380E+00  0.378E+00
  -4.715  0.382E+00  0.380E+00
  -4.705  0.384E+00  0.382E+00
  -4.695  0.386E+00  0.385E+00
  -4.685  0.389E+00  0.387E+00
  -4.675  0.391E+00  0.389E+00
  -4.665  0.393E+00  0.392E+00
  -4.655  0.396E+00  0.394E+00
  -4.645  0.398E+00  0.397E+00
  -4.635  0.401E+00  0.399E+00
  -4.625  0.403E+00  0.402E+00
  -4.615  0.406E+00  0.404E+00
  -4.605  0.408E+00  0.407E+00
  -4.595  0.411E+00  0.409E+00
  -4.585  0.413E+00  0.412E+00
  -4.575  0.416E+00  0.414E+00
  -4.565  0.418E+00  0.417E+00
  -4.555  0.421E+00  0.419E+00
  -4.545  0.423E+00  0.422E+00
  -4.535  0.426E+00  0.424E+00
  -4.525  0.429E+00  0.427E+00
  -4.515  0.431E+00  0.429E+00
  -4.505  0.434E+00  0.432E+00
  -4.495  0.436E+00  0.434E+00
  -4.485  0.439E+00  0.437E+00
  -4.475  0.441E+00  0.439E+00
  -4.465  0.444E+00  0.442E+00
  -4.455  0.446E+00  0.444E+00
  -4.445  0.449E+00  0.447E+00
  -4.435  0.451E+00  0.449E+00
  -4.425  0.453E+00  0.451E+00
  -4.415  0.455E+00  0.453E+00
  -4.405  0.457E+00  0.455E+00
  -4.395  0.459E+00  0.457E+00
  -4.385  0.461E+00  0.459E+00
  -4.375  0.462E+00  0.460E+00
  -4.365  0.464E+00  0.462E+00
  -4.355  0.466E+00  0.464E+00
  -4.345  0.468E+00  0.466E+00
  -4.335  0.470E+00  0.468E+00
  -4.325  0.472E+00  0.470E+00
  -4.315  0.475E+00  0.473E+00
  -4.305  0.477E+00  0.475E+00
  -4.295  0.479E+00  0.477E+00
  -4.285  0.482E+00  0.480E+00
  -4.275  0.484E+00  0.482E+00
  -4.265  0.487E+00  0.484E+00
  -4.255  0.489E+00  0.487E+00
  -4.245  0.492E+00  0.489E+00
  -4.235  0.494E+00  0.492E+00
  -4.225  0.496E+00  0.494E+00
  -4.215  0.499E+00  0.497E+00
  -4.205  0.502E+00  0.499E+00
  -4.195  0.504E+00  0.502E+00
  -4.185  0.507E+00  0.504E+00
  -4.175  0.509E+00  0.507E+00
  -4.165  0.512E+00  0.510E+00
  -4.155  0.514E+00  0.512E+00
  -4.145  0.517E+00  0.515E+00
  -4.135  0.520E+00  0.517E+00
  -4.125  0.522E+00  0.520E+00
  -4.115  0.525E+00  0.523E+00
  -4.105  0.528E+00  0.525E+00
  -4.095  0.530E+00  0.528E+00
  -4.085  0.533E+00  0.531E+00
  -4.075  0.536E+00  0.534E+00
  -4.065  0.539E+00  0.536E+00
  -4.055  0.542E+00  0.539E+00
  -4.045  0.545E+00  0.542E+00
  -4.035  0.548E+00  0.545E+00
  -4.025  0.551E+00  0.548E+00
  -4.015  0.554E+00  0.551E+00
  -4.005  0.557E+00  0.555E+00
  -3.995  0.560E+00  0.558E+00
  -3.985  0.564E+00  0.561E+00
  -3.975  0.567E+00  0.565E+00
  -3.965  0.570E+00  0.568E+00
  -3.955  0.574E+00  0.571E+00
  -3.945  0.577E+00  0.575E+00
  -3.935  0.581E+00  0.578E+00
  -3.925  0.584E+00  0.582E+00
  -3.915  0.588E+00  0.585E+00
  -3.905  0.592E+00  0.589E+00
  -3.895  0.595E+00  0.593E+00
  -3.885  0.599E+00  0.597E+00
  -3.875  0.603E+00  0.600E+00
  -3.865  0.607E+00  0.604E+00
  -3.855  0.611E+00  0.608E+00
  -3.845  0.615E+00  0.612E+00
  -3.835  0.619E+00  0.616E+00
  -3.825  0.623E+00  0.620E+00
  -3.815  0.627E+00  0.624E+00
  -3.805  0.631E+00  0.628E+00
  -3.795  0.635E+00  0.632E+00
  -3.785  0.639E+00  0.636E+00
  -3.775  0.643E+00  0.640E+00
  -3.765  0.648E+00  0.645E+00
  -3.755  0.652E+00  0.649E+00
  -3.745  0.656E+00  0.653E+00
  -3.735  0.661E+00  0.658E+00
  -3.725  0.665E+00  0.663E+00
  -3.715  0.670E+00  0.667E+00
  -3.705  0.675E+00  0.672E+00
  -3.695  0.680E+00  0.677E+00
  -3.685  0.686E+00  0.683E+00
  -3.675  0.691E+00  0.688E+00
  -3.665  0.697E+00  0.694E+00
  -3.655  0.702E+00  0.699E+00
  -3.645  0.708E+00  0.705E+00
  -3.635  0.714E+00  0.711E+00
  -3.625  0.720E+00  0.717E+00
  -3.615  0.726E+00  0.723E+00
  -3.605  0.733E+00  0.730E+00
  -3.595  0.744E+00  0.741E+00
  -3.585  0.757E+00  0.754E+00
  -3.575  0.773E+00  0.770E+00
  -3.565  0.791E+00  0.788E+00
  -3.555  0.811E+00  0.808E+00
  -3.545  0.834E+00  0.830E+00
  -3.535  0.859E+00  0.855E+00
  -3.525  0.886E+00  0.882E+00
  -3.515  0.916E+00  0.912E+00
  -3.505  0.947E+00  0.944E+00
  -3.495  0.982E+00  0.978E+00
  -3.485  0.101E+01  0.101E+01
  -3.475  0.103E+01  0.102E+01
  -3.465  0.101E+01  0.101E+01
  -3.455  0.980E+00  0.977E+00
  -3.445  0.923E+00  0.919E+00
  -3.435  0.859E+00  0.856E+00
  -3.425  0.858E+00  0.854E+00
  -3.415  0.857E+00  0.853E+00
  -3.405  0.856E+00  0.852E+00
  -3.395  0.855E+00  0.851E+00
  -3.385  0.854E+00  0.850E+00
  -3.375  0.853E+00  0.849E+00
  -3.365  0.852E+00  0.848E+00
  -3.355  0.851E+00  0.847E+00
  -3.345  0.850E+00  0.846E+00
  -3.335  0.849E+00  0.846E+00
  -3.325  0.848E+00  0.845E+00
  -3.315  0.848E+00  0.844E+00
  -3.305  0.847E+00  0.844E+00
  -3.295  0.847E+00  0.843E+00
  -3.285  0.846E+00  0.843E+00
  -3.275  0.846E+00  0.842E+00
  -3.265  0.845E+00  0.842E+00
  -3.255  0.845E+00  0.841E+00
  -3.245  0.844E+00  0.840E+00
  -3.235  0.842E+00  0.838E+00
  -3.225  0.839E+00  0.835E+00
  -3.215  0.834E+00  0.831E+00
  -3.205  0.829E+00  0.826E+00
  -3.195  0.823E+00  0.820E+00
  -3.185  0.816E+00  0.812E+00
  -3.175  0.807E+00  0.804E+00
  -3.165  0.798E+00  0.795E+00
  -3.155  0.788E+00  0.784E+00
  -3.145  0.776E+00  0.773E+00
  -3.135  0.766E+00  0.762E+00
  -3.125  0.758E+00  0.755E+00
  -3.115  0.754E+00  0.751E+00
  -3.105  0.754E+00  0.750E+00
  -3.095  0.756E+00  0.753E+00
  -3.085  0.758E+00  0.755E+00
  -3.075  0.760E+00  0.757E+00
  -3.065  0.762E+00  0.759E+00
  -3.055  0.764E+00  0.761E+00
  -3.045  0.766E+00  0.762E+00
  -3.035  0.767E+00  0.764E+00
  -3.025  0.769E+00  0.765E+00
  -3.015  0.769E+00  0.766E+00
  -3.005  0.770E+00  0.766E+00
  -2.995  0.769E+00  0.766E+00
  -2.985  0.769E+00  0.765E+00
  -2.975  0.767E+00  0.764E+00
  -2.965  0.765E+00  0.762E+00
  -2.955  0.762E+00  0.759E+00
  -2.945  0.759E+00  0.756E+00
  -2.935  0.755E+00  0.752E+00
  -2.925  0.752E+00  0.749E+00
  -2.915  0.748E+00  0.745E+00
  -2.905  0.744E+00  0.741E+00
  -2.895  0.740E+00  0.736E+00
  -2.885  0.735E+00  0.732E+00
  -2.875  0.731E+00  0.727E+00
  -2.865  0.726E+00  0.723E+00
  -2.855  0.721E+00  0.717E+00
  -2.845  0.715E+00  0.712E+00
  -2.835  0.710E+00  0.707E+00
  -2.825  0.704E+00  0.701E+00
  -2.815  0.698E+00  0.695E+00
  -2.805  0.692E+00  0.689E+00
  -2.795  0.686E+00  0.683E+00
  -2.785  0.680E+00  0.677E+00
  -2.775  0.673E+00  0.670E+00
  -2.765  0.666E+00  0.663E+00
  -2.755  0.659E+00  0.656E+00
  -2.745  0.655E+00  0.652E+00
  -2.735  0.652E+00  0.649E+00
  -2.725  0.649E+00  0.646E+00
  -2.715  0.646E+00  0.643E+00
  -2.705  0.643E+00  0.640E+00
  -2.695  0.639E+00  0.637E+00
  -2.685  0.636E+00  0.633E+00
  -2.675  0.633E+00  0.630E+00
  -2.665  0.630E+00  0.627E+00
  -2.655  0.627E+00  0.624E+00
  -2.645  0.624E+00  0.621E+00
  -2.635  0.621E+00  0.618E+00
  -2.625  0.618E+00  0.615E+00
  -2.615  0.615E+00  0.613E+00
  -2.605  0.613E+00  0.610E+00
  -2.595  0.610E+00  0.607E+00
  -2.585  0.607E+00  0.604E+00
  -2.575  0.605E+00  0.602E+00
  -2.565  0.602E+00  0.599E+00
  -2.555  0.599E+00  0.597E+00
  -2.545  0.597E+00  0.594E+00
  -2.535  0.595E+00  0.592E+00
  -2.525  0.592E+00  0.590E+00
  -2.515  0.590E+00  0.587E+00
  -2.505  0.588E+00  0.585E+00
  -2.495  0.585E+00  0.583E+00
  -2.485  0.583E+00  0.581E+00
  -2.475  0.581E+00  0.578E+00
  -2.465  0.578E+00  0.575E+00
  -2.455  0.575E+00  0.573E+00
  -2.445  0.573E+00  0.570E+00
  -2.435  0.570E+00  0.567E+00
  -2.425  0.567E+00  0.564E+00
  -2.415  0.563E+00  0.561E+00
  -2.405  0.560E+00  0.557E+00
  -2.395  0.557E+00  0.554E+00
  -2.385  0.553E+00  0.551E+00
  -2.375  0.552E+00  0.549E+00
  -2.365  0.550E+00  0.548E+00
  -2.355  0.548E+00  0.546E+00
  -2.345  0.546E+00  0.543E+00
  -2.335  0.544E+00  0.541E+00
  -2.325  0.541E+00  0.538E+00
  -2.315  0.538E+00  0.536E+00
  -2.305  0.535E+00  0.533E+00
  -2.295  0.532E+00  0.529E+00
  -2.285  0.528E+00  0.526E+00
  -2.275  0.524E+00  0.522E+00
  -2.265  0.520E+00  0.518E+00
  -2.255  0.598E+00  0.595E+00
  -2.245  0.601E+00  0.598E+00
  -2.235  0.586E+00  0.583E+00
  -2.225  0.571E+00  0.568E+00
  -2.215  0.556E+00  0.554E+00
  -2.205  0.542E+00  0.539E+00
  -2.195  0.528E+00  0.525E+00
  -2.185  0.514E+00  0.512E+00
  -2.175  0.501E+00  0.498E+00
  -2.165  0.488E+00  0.485E+00
  -2.155  0.475E+00  0.473E+00
  -2.145  0.464E+00  0.462E+00
  -2.135  0.453E+00  0.451E+00
  -2.125  0.442E+00  0.440E+00
  -2.115  0.431E+00  0.429E+00
  -2.105  0.420E+00  0.418E+00
  -2.095  0.409E+00  0.407E+00
  -2.085  0.398E+00  0.396E+00
  -2.075  0.388E+00  0.386E+00
  -2.065  0.377E+00  0.375E+00
  -2.055  0.366E+00  0.365E+00
  -2.045  0.356E+00  0.354E+00
  -2.035  0.346E+00  0.344E+00
  -2.025  0.336E+00  0.334E+00
  -2.015  0.325E+00  0.324E+00
  -2.005  0.315E+00  0.314E+00
  -1.995  0.306E+00  0.304E+00
  -1.985  0.296E+00  0.294E+00
  -1.975  0.286E+00  0.284E+00
  -1.965  0.276E+00  0.275E+00
  -1.955  0.267E+00  0.265E+00
  -1.945  0.257E+00  0.256E+00
  -1.935  0.248E+00  0.247E+00
  -1.925  0.239E+00  0.237E+00
  -1.915  0.229E+00  0.228E+00
  -1.905  0.220E+00  0.219E+00
  -1.895  0.211E+00  0.210E+00
  -1.885  0.202E+00  0.201E+00
  -1.875  0.194E+00  0.193E+00
  -1.865  0.185E+00  0.184E+00
  -1.855  0.177E+00  0.176E+00
  -1.845  0.168E+00  0.167E+00
  -1.835  0.160E+00  0.159E+00
  -1.825  0.152E+00  0.151E+00
  -1.815  0.144E+00  0.143E+00
  -1.805  0.136E+00  0.135E+00
  -1.795  0.128E+00  0.128E+00
  -1.785  0.121E+00  0.120E+00
  -1.775  0.113E+00  0.113E+00
  -1.765  0.106E+00  0.105E+00
  -1.755  0.989E-01  0.983E-01
  -1.745  0.918E-01  0.913E-01
  -1.735  0.848E-01  0.844E-01
  -1.725  0.780E-01  0.776E-01
  -1.715  0.713E-01  0.710E-01
  -1.705  0.648E-01  0.644E-01
  -1.695  0.583E-01  0.580E-01
  -1.685  0.520E-01  0.518E-01
  -1.675  0.460E-01  0.458E-01
  -1.665  0.407E-01  0.407E-01
  -1.655  0.362E-01  0.364E-01
  -1.645  0.324E-01  0.330E-01
  -1.635  0.293E-01  0.304E-01
  -1.625  0.270E-01  0.287E-01
  -1.615  0.253E-01  0.277E-01
  -1.605  0.242E-01  0.273E-01
  -1.595  0.235E-01  0.275E-01
  -1.585  0.234E-01  0.283E-01
  -1.575  0.238E-01  0.298E-01
  -1.565  0.248E-01  0.318E-01
  -1.555  0.263E-01  0.345E-01
  -1.545  0.283E-01  0.377E-01
  -1.535  0.308E-01  0.415E-01
  -1.525  0.352E-01  0.473E-01
  -1.515  0.410E-01  0.546E-01
  -1.505  0.468E-01  0.620E-01
  -1.495  0.528E-01  0.695E-01
  -1.485  0.588E-01  0.771E-01
  -1.475  0.650E-01  0.849E-01
  -1.465  0.713E-01  0.928E-01
  -1.455  0.777E-01  0.101E+00
  -1.445  0.843E-01  0.109E+00
  -1.435  0.909E-01  0.117E+00
  -1.425  0.977E-01  0.126E+00
  -1.415  0.105E+00  0.134E+00
  -1.405  0.112E+00  0.143E+00
  -1.395  0.119E+00  0.151E+00
  -1.385  0.126E+00  0.160E+00
  -1.375  0.133E+00  0.169E+00
  -1.365  0.141E+00  0.178E+00
  -1.355  0.148E+00  0.188E+00
  -1.345  0.156E+00  0.197E+00
  -1.335  0.164E+00  0.206E+00
  -1.325  0.171E+00  0.216E+00
  -1.315  0.179E+00  0.226E+00
  -1.305  0.188E+00  0.236E+00
  -1.295  0.196E+00  0.246E+00
  -1.285  0.204E+00  0.256E+00
  -1.275  0.212E+00  0.266E+00
  -1.265  0.221E+00  0.276E+00
  -1.255  0.229E+00  0.286E+00
  -1.245  0.238E+00  0.296E+00
  -1.235  0.247E+00  0.307E+00
  -1.225  0.255E+00  0.317E+00
  -1.215  0.264E+00  0.327E+00
  -1.205  0.273E+00  0.338E+00
  -1.195  0.282E+00  0.348E+00
  -1.185  0.291E+00  0.359E+00
  -1.175  0.300E+00  0.370E+00
  -1.165  0.310E+00  0.380E+00
  -1.155  0.319E+00  0.391E+00
  -1.145  0.328E+00  0.402E+00
  -1.135  0.338E+00  0.413E+00
  -1.125  0.347E+00  0.424E+00
  -1.115  0.357E+00  0.434E+00
  -1.105  0.366E+00  0.445E+00
  -1.095  0.376E+00  0.456E+00
  -1.085  0.386E+00  0.467E+00
  -1.075  0.396E+00  0.478E+00
  -1.065  0.406E+00  0.489E+00
  -1.055  0.416E+00  0.500E+00
  -1.045  0.426E+00  0.512E+00
  -1.035  0.436E+00  0.523E+00
  -1.025  0.447E+00  0.534E+00
  -1.015  0.457E+00  0.545E+00
  -1.005  0.468E+00  0.556E+00
  -0.995  0.478E+00  0.567E+00
  -0.985  0.489E+00  0.578E+00
  -0.975  0.499E+00  0.590E+00
  -0.965  0.510E+00  0.601E+00
  -0.955  0.521E+00  0.612E+00
  -0.945  0.532E+00  0.623E+00
  -0.935  0.543E+00  0.635E+00
  -0.925  0.559E+00  0.651E+00
  -0.915  0.584E+00  0.676E+00
  -0.905  0.618E+00  0.711E+00
  -0.895  0.621E+00  0.710E+00
  -0.885  0.606E+00  0.689E+00
  -0.875  0.613E+00  0.695E+00
  -0.865  0.628E+00  0.711E+00
  -0.855  0.642E+00  0.725E+00
  -0.845  0.656E+00  0.738E+00
  -0.835  0.669E+00  0.750E+00
  -0.825  0.683E+00  0.762E+00
  -0.815  0.696E+00  0.774E+00
  -0.805  0.709E+00  0.784E+00
  -0.795  0.722E+00  0.795E+00
  -0.785  0.734E+00  0.804E+00
  -0.775  0.747E+00  0.813E+00
  -0.765  0.761E+00  0.824E+00
  -0.755  0.777E+00  0.838E+00
  -0.745  0.797E+00  0.854E+00
  -0.735  0.820E+00  0.874E+00
  -0.725  0.846E+00  0.896E+00
  -0.715  0.874E+00  0.921E+00
  -0.705  0.111E+01  0.112E+01
  -0.695  0.116E+01  0.117E+01
  -0.685  0.122E+01  0.123E+01
  -0.675  0.129E+01  0.128E+01
  -0.665  0.136E+01  0.135E+01
  -0.655  0.143E+01  0.142E+01
  -0.645  0.151E+01  0.149E+01
  -0.635  0.159E+01  0.157E+01
  -0.625  0.168E+01  0.165E+01
  -0.615  0.177E+01  0.174E+01
  -0.605  0.184E+01  0.181E+01
  -0.595  0.185E+01  0.181E+01
  -0.585  0.180E+01  0.177E+01
  -0.575  0.173E+01  0.170E+01
  -0.565  0.167E+01  0.164E+01
  -0.555  0.160E+01  0.158E+01
  -0.545  0.154E+01  0.152E+01
  -0.535  0.148E+01  0.147E+01
  -0.525  0.143E+01  0.142E+01
  -0.515  0.138E+01  0.137E+01
  -0.505  0.133E+01  0.132E+01
  -0.495  0.128E+01  0.128E+01
  -0.485  0.124E+01  0.124E+01
  -0.475  0.120E+01  0.120E+01
  -0.465  0.116E+01  0.116E+01
  -0.455  0.113E+01  0.113E+01
  -0.445  0.110E+01  0.110E+01
  -0.435  0.106E+01  0.107E+01
  -0.425  0.104E+01  0.104E+01
  -0.415  0.101E+01  0.101E+01
  -0.405  0.981E+00  0.985E+00
  -0.395  0.957E+00  0.961E+00
  -0.385  0.934E+00  0.939E+00
  -0.375  0.912E+00  0.918E+00
  -0.365  0.892E+00  0.898E+00
  -0.355  0.874E+00  0.880E+00
  -0.345  0.857E+00  0.863E+00
  -0.335  0.843E+00  0.850E+00
  -0.325  0.830E+00  0.837E+00
  -0.315  0.817E+00  0.825E+00
  -0.305  0.805E+00  0.814E+00
  -0.295  0.795E+00  0.803E+00
  -0.285  0.784E+00  0.793E+00
  -0.275  0.774E+00  0.784E+00
  -0.265  0.765E+00  0.775E+00
  -0.255  0.756E+00  0.766E+00
  -0.245  0.747E+00  0.758E+00
  -0.235  0.739E+00  0.750E+00
  -0.225  0.731E+00  0.742E+00
  -0.215  0.724E+00  0.735E+00
  -0.205  0.717E+00  0.728E+00
  -0.195  0.710E+00  0.721E+00
  -0.185  0.704E+00  0.715E+00
  -0.175  0.698E+00  0.710E+00
  -0.165  0.693E+00  0.704E+00
  -0.155  0.687E+00  0.698E+00
  -0.145  0.681E+00  0.693E+00
  -0.135  0.676E+00  0.687E+00
  -0.125  0.671E+00  0.682E+00
  -0.115  0.665E+00  0.677E+00
  -0.105  0.660E+00  0.671E+00
  -0.095  0.655E+00  0.666E+00
  -0.085  0.650E+00  0.661E+00
  -0.075  0.646E+00  0.656E+00
  -0.065  0.641E+00  0.652E+00
  -0.055  0.636E+00  0.647E+00
  -0.045  0.632E+00  0.642E+00
  -0.035  0.627E+00  0.637E+00
  -0.025  0.623E+00  0.633E+00
  -0.015  0.619E+00  0.628E+00
  -0.005  0.614E+00  0.624E+00
   0.005  0.610E+00  0.619E+00
   0.015  0.606E+00  0.615E+00
   0.025  0.601E+00  0.611E+00
   0.035  0.597E+00  0.606E+00
   0.045  0.593E+00  0.602E+00
   0.055  0.589E+00  0.597E+00
   0.065  0.585E+00  0.593E+00
   0.075  0.581E+00  0.589E+00
   0.085  0.577E+00  0.584E+00
   0.095  0.572E+00  0.580E+00
   0.105  0.568E+00  0.576E+00
   0.115  0.564E+00  0.571E+00
   0.125  0.560E+00  0.567E+00
   0.135  0.556E+00  0.563E+00
   0.145  0.552E+00  0.558E+00
   0.155  0.548E+00  0.554E+00
   0.165  0.544E+00  0.550E+00
   0.175  0.540E+00  0.546E+00
   0.185  0.536E+00  0.542E+00
   0.195  0.532E+00  0.538E+00
   0.205  0.529E+00  0.533E+00
   0.215  0.525E+00  0.529E+00
   0.225  0.521E+00  0.525E+00
   0.235  0.517E+00  0.521E+00
   0.245  0.513E+00  0.517E+00
   0.255  0.509E+00  0.513E+00
   0.265  0.506E+00  0.509E+00
   0.275  0.502E+00  0.505E+00
   0.285  0.498E+00  0.501E+00
   0.295  0.494E+00  0.498E+00
   0.305  0.491E+00  0.494E+00
   0.315  0.487E+00  0.490E+00
   0.325  0.484E+00  0.487E+00
   0.335  0.480E+00  0.483E+00
   0.345  0.477E+00  0.479E+00
   0.355  0.473E+00  0.476E+00
   0.365  0.470E+00  0.472E+00
   0.375  0.466E+00  0.469E+00
   0.385  0.463E+00  0.466E+00
   0.395  0.460E+00  0.463E+00
   0.405  0.457E+00  0.459E+00
   0.415  0.453E+00  0.455E+00
   0.425  0.447E+00  0.451E+00
   0.435  0.443E+00  0.446E+00
   0.445  0.438E+00  0.441E+00
   0.455  0.433E+00  0.437E+00
   0.465  0.429E+00  0.433E+00
   0.475  0.425E+00  0.429E+00
   0.485  0.421E+00  0.425E+00
   0.495  0.417E+00  0.422E+00
   0.505  0.413E+00  0.418E+00
   0.515  0.410E+00  0.415E+00
   0.525  0.406E+00  0.412E+00
   0.535  0.403E+00  0.409E+00
   0.545  0.401E+00  0.406E+00
   0.555  0.398E+00  0.404E+00
   0.565  0.395E+00  0.402E+00
   0.575  0.393E+00  0.399E+00
   0.585  0.391E+00  0.397E+00
   0.595  0.389E+00  0.396E+00
   0.605  0.388E+00  0.394E+00
   0.615  0.386E+00  0.392E+00
   0.625  0.385E+00  0.391E+00
   0.635  0.383E+00  0.389E+00
   0.645  0.382E+00  0.388E+00
   0.655  0.380E+00  0.386E+00
   0.665  0.379E+00  0.384E+00
   0.675  0.377E+00  0.383E+00
   0.685  0.376E+00  0.381E+00
   0.695  0.374E+00  0.380E+00
   0.705  0.373E+00  0.378E+00
   0.715  0.371E+00  0.377E+00
   0.725  0.370E+00  0.375E+00
   0.735  0.368E+00  0.374E+00
   0.745  0.367E+00  0.372E+00
   0.755  0.365E+00  0.370E+00
   0.765  0.364E+00  0.369E+00
   0.775  0.362E+00  0.367E+00
   0.785  0.361E+00  0.366E+00
   0.795  0.359E+00  0.364E+00
   0.805  0.358E+00  0.363E+00
   0.815  0.356E+00  0.361E+00
   0.825  0.355E+00  0.359E+00
   0.835  0.353E+00  0.358E+00
   0.845  0.352E+00  0.356E+00
   0.855  0.350E+00  0.354E+00
   0.865  0.349E+00  0.353E+00
   0.875  0.347E+00  0.351E+00
   0.885  0.346E+00  0.350E+00
   0.895  0.344E+00  0.348E+00
   0.905  0.343E+00  0.346E+00
   0.915  0.341E+00  0.345E+00
   0.925  0.340E+00  0.343E+00
   0.935  0.338E+00  0.342E+00
   0.945  0.337E+00  0.340E+00
   0.955  0.335E+00  0.339E+00
   0.965  0.334E+00  0.337E+00
   0.975  0.332E+00  0.335E+00
   0.985  0.331E+00  0.334E+00
   0.995  0.329E+00  0.332E+00
   1.005  0.328E+00  0.331E+00
   1.015  0.326E+00  0.329E+00
   1.025  0.325E+00  0.327E+00
   1.035  0.323E+00  0.326E+00
   1.045  0.322E+00  0.324E+00
   1.055  0.320E+00  0.323E+00
   1.065  0.319E+00  0.321E+00
   1.075  0.317E+00  0.320E+00
   1.085  0.316E+00  0.318E+00
   1.095  0.314E+00  0.316E+00
   1.105  0.313E+00  0.315E+00
   1.115  0.311E+00  0.313E+00
   1.125  0.310E+00  0.312E+00
   1.135  0.308E+00  0.310E+00
   1.145  0.306E+00  0.309E+00
   1.155  0.305E+00  0.307E+00
   1.165  0.303E+00  0.306E+00
   1.175  0.302E+00  0.304E+00
   1.185  0.300E+00  0.303E+00
   1.195  0.299E+00  0.301E+00
   1.205  0.297E+00  0.299E+00
   1.215  0.296E+00  0.298E+00
   1.225  0.294E+00  0.296E+00
   1.235  0.293E+00  0.295E+00
   1.245  0.291E+00  0.293E+00
   1.255  0.290E+00  0.292E+00
   1.265  0.288E+00  0.290E+00
   1.275  0.287E+00  0.289E+00
   1.285  0.285E+00  0.287E+00
   1.295  0.284E+00  0.286E+00
   1.305  0.282E+00  0.284E+00
   1.315  0.281E+00  0.283E+00
   1.325  0.279E+00  0.281E+00
   1.335  0.278E+00  0.280E+00
   1.345  0.276E+00  0.278E+00
   1.355  0.262E+00  0.264E+00
   1.365  0.256E+00  0.258E+00
   1.375  0.254E+00  0.256E+00
   1.385  0.252E+00  0.254E+00
   1.395  0.250E+00  0.252E+00
   1.405  0.249E+00  0.250E+00
   1.415  0.247E+00  0.248E+00
   1.425  0.245E+00  0.247E+00
   1.435  0.243E+00  0.245E+00
   1.445  0.242E+00  0.244E+00
   1.455  0.240E+00  0.242E+00
   1.465  0.239E+00  0.240E+00
   1.475  0.237E+00  0.239E+00
   1.485  0.236E+00  0.237E+00
   1.495  0.234E+00  0.236E+00
   1.505  0.233E+00  0.235E+00
   1.515  0.232E+00  0.233E+00
   1.525  0.230E+00  0.232E+00
   1.535  0.229E+00  0.231E+00
   1.545  0.228E+00  0.230E+00
   1.555  0.227E+00  0.228E+00
   1.565  0.226E+00  0.227E+00
   1.575  0.225E+00  0.226E+00
   1.585  0.224E+00  0.225E+00
   1.595  0.223E+00  0.224E+00
   1.605  0.222E+00  0.223E+00
   1.615  0.221E+00  0.222E+00
   1.625  0.220E+00  0.221E+00
   1.635  0.219E+00  0.221E+00
   1.645  0.218E+00  0.220E+00
   1.655  0.218E+00  0.219E+00
   1.665  0.217E+00  0.218E+00
   1.675  0.216E+00  0.217E+00
   1.685  0.216E+00  0.217E+00
   1.695  0.215E+00  0.216E+00
   1.705  0.214E+00  0.215E+00
   1.715  0.214E+00  0.214E+00
   1.725  0.213E+00  0.214E+00
   1.735  0.212E+00  0.213E+00
   1.745  0.211E+00  0.212E+00
   1.755  0.211E+00  0.211E+00
   1.765  0.220E+00  0.219E+00
   1.775  0.245E+00  0.239E+00
   1.785  0.286E+00  0.272E+00
   1.795  0.343E+00  0.318E+00
   1.805  0.415E+00  0.376E+00
   1.815  0.503E+00  0.448E+00
   1.825  0.607E+00  0.533E+00
   1.835  0.696E+00  0.605E+00
   1.845  0.701E+00  0.608E+00
   1.855  0.623E+00  0.545E+00
   1.865  0.648E+00  0.565E+00
   1.875  0.674E+00  0.587E+00
   1.885  0.701E+00  0.609E+00
   1.895  0.730E+00  0.634E+00
   1.905  0.761E+00  0.659E+00
   1.915  0.793E+00  0.686E+00
   1.925  0.827E+00  0.715E+00
   1.935  0.862E+00  0.744E+00
   1.945  0.899E+00  0.776E+00
   1.955  0.937E+00  0.808E+00
   1.965  0.968E+00  0.835E+00
   1.975  0.998E+00  0.860E+00
   1.985  0.103E+01  0.886E+00
   1.995  0.106E+01  0.911E+00
   2.005  0.109E+01  0.936E+00
   2.015  0.112E+01  0.961E+00
   2.025  0.115E+01  0.986E+00
   2.035  0.118E+01  0.101E+01
   2.045  0.121E+01  0.103E+01
   2.055  0.124E+01  0.106E+01
   2.065  0.126E+01  0.108E+01
   2.075  0.129E+01  0.110E+01
   2.085  0.132E+01  0.113E+01
   2.095  0.135E+01  0.115E+01
   2.105  0.138E+01  0.117E+01
   2.115  0.141E+01  0.120E+01
   2.125  0.142E+01  0.121E+01
   2.135  0.143E+01  0.121E+01
   2.145  0.144E+01  0.122E+01
   2.155  0.145E+01  0.122E+01
   2.165  0.145E+01  0.122E+01
   2.175  0.146E+01  0.122E+01
   2.185  0.141E+01  0.118E+01
   2.195  0.136E+01  0.114E+01
   2.205  0.131E+01  0.110E+01
   2.215  0.126E+01  0.106E+01
   2.225  0.122E+01  0.103E+01
   2.235  0.118E+01  0.992E+00
   2.245  0.114E+01  0.961E+00
   2.255  0.111E+01  0.932E+00
   2.265  0.108E+01  0.905E+00
   2.275  0.106E+01  0.890E+00
   2.285  0.104E+01  0.878E+00
   2.295  0.103E+01  0.868E+00
   2.305  0.102E+01  0.859E+00
   2.315  0.101E+01  0.852E+00
   2.325  0.100E+01  0.847E+00
   2.335  0.100E+01  0.845E+00
   2.345  0.100E+01  0.843E+00
   2.355  0.100E+01  0.842E+00
   2.365  0.999E+00  0.840E+00
   2.375  0.998E+00  0.839E+00
   2.385  0.997E+00  0.837E+00
   2.395  0.996E+00  0.836E+00
   2.405  0.995E+00  0.834E+00
   2.415  0.993E+00  0.833E+00
   2.425  0.992E+00  0.832E+00
   2.435  0.991E+00  0.831E+00
   2.445  0.991E+00  0.830E+00
   2.455  0.990E+00  0.829E+00
   2.465  0.990E+00  0.828E+00
   2.475  0.990E+00  0.828E+00
   2.485  0.989E+00  0.828E+00
   2.495  0.989E+00  0.827E+00
   2.505  0.988E+00  0.826E+00
   2.515  0.988E+00  0.826E+00
   2.525  0.988E+00  0.826E+00
   2.535  0.988E+00  0.826E+00
   2.545  0.988E+00  0.826E+00
   2.555  0.989E+00  0.826E+00
   2.565  0.990E+00  0.827E+00
   2.575  0.991E+00  0.828E+00
   2.585  0.992E+00  0.829E+00
   2.595  0.994E+00  0.830E+00
   2.605  0.995E+00  0.831E+00
   2.615  0.997E+00  0.833E+00
   2.625  0.100E+01  0.834E+00
   2.635  0.100E+01  0.836E+00
   2.645  0.100E+01  0.838E+00
   2.655  0.101E+01  0.840E+00
   2.665  0.101E+01  0.841E+00
   2.675  0.101E+01  0.842E+00
   2.685  0.101E+01  0.843E+00
   2.695  0.101E+01  0.844E+00
   2.705  0.101E+01  0.845E+00
   2.715  0.102E+01  0.846E+00
   2.725  0.102E+01  0.848E+00
   2.735  0.102E+01  0.849E+00
   2.745  0.102E+01  0.851E+00
   2.755  0.103E+01  0.853E+00
   2.765  0.103E+01  0.855E+00
   2.775  0.103E+01  0.857E+00
   2.785  0.104E+01  0.859E+00
   2.795  0.104E+01  0.861E+00
   2.805  0.104E+01  0.864E+00
   2.815  0.104E+01  0.866E+00
   2.825  0.105E+01  0.868E+00
   2.835  0.125E+01  0.981E+00
   2.845  0.143E+01  0.108E+01
   2.855  0.133E+01  0.103E+01
   2.865  0.123E+01  0.971E+00
   2.875  0.116E+01  0.932E+00
   2.885  0.112E+01  0.912E+00
   2.895  0.111E+01  0.910E+00
   2.905  0.112E+01  0.913E+00
   2.915  0.112E+01  0.917E+00
   2.925  0.112E+01  0.921E+00
   2.935  0.113E+01  0.926E+00
   2.945  0.113E+01  0.931E+00
   2.955  0.114E+01  0.936E+00
   2.965  0.114E+01  0.942E+00
   2.975  0.115E+01  0.948E+00
   2.985  0.116E+01  0.955E+00
   2.995  0.117E+01  0.962E+00
   3.005  0.117E+01  0.970E+00
   3.015  0.118E+01  0.978E+00
   3.025  0.119E+01  0.986E+00
   3.035  0.120E+01  0.995E+00
   3.045  0.121E+01  0.100E+01
   3.055  0.122E+01  0.101E+01
   3.065  0.123E+01  0.102E+01
   3.075  0.124E+01  0.103E+01
   3.085  0.125E+01  0.104E+01
   3.095  0.126E+01  0.105E+01
   3.105  0.127E+01  0.107E+01
   3.115  0.129E+01  0.108E+01
   3.125  0.138E+01  0.116E+01
   3.135  0.150E+01  0.127E+01
   3.145  0.146E+01  0.125E+01
   3.155  0.144E+01  0.122E+01
   3.165  0.142E+01  0.120E+01
   3.175  0.140E+01  0.119E+01
   3.185  0.139E+01  0.118E+01
   3.195  0.138E+01  0.117E+01
   3.205  0.138E+01  0.117E+01
   3.215  0.138E+01  0.118E+01
   3.225  0.139E+01  0.118E+01
   3.235  0.140E+01  0.120E+01
   3.245  0.141E+01  0.121E+01
   3.255  0.143E+01  0.122E+01
   3.265  0.143E+01  0.123E+01
   3.275  0.144E+01  0.124E+01
   3.285  0.145E+01  0.125E+01
   3.295  0.146E+01  0.127E+01
   3.305  0.148E+01  0.129E+01
   3.315  0.150E+01  0.131E+01
   3.325  0.153E+01  0.133E+01
   3.335  0.155E+01  0.136E+01
   3.345  0.158E+01  0.139E+01
   3.355  0.162E+01  0.142E+01
   3.365  0.165E+01  0.145E+01
   3.375  0.169E+01  0.149E+01
   3.385  0.171E+01  0.150E+01
   3.395  0.162E+01  0.143E+01
   3.405  0.156E+01  0.137E+01
   3.415  0.152E+01  0.133E+01
   3.425  0.149E+01  0.130E+01
   3.435  0.149E+01  0.130E+01
   3.445  0.149E+01  0.130E+01
   3.455  0.148E+01  0.129E+01
   3.465  0.148E+01  0.129E+01
   3.475  0.148E+01  0.129E+01
   3.485  0.147E+01  0.128E+01
   3.495  0.147E+01  0.128E+01
   3.505  0.147E+01  0.128E+01
   3.515  0.146E+01  0.128E+01
   3.525  0.146E+01  0.127E+01
   3.535  0.146E+01  0.127E+01
   3.545  0.146E+01  0.127E+01
   3.555  0.145E+01  0.126E+01
   3.565  0.145E+01  0.126E+01
   3.575  0.145E+01  0.126E+01
   3.585  0.144E+01  0.126E+01
   3.595  0.144E+01  0.125E+01
   3.605  0.144E+01  0.125E+01
   3.615  0.143E+01  0.125E+01
   3.625  0.143E+01  0.124E+01
   3.635  0.143E+01  0.124E+01
   3.645  0.142E+01  0.124E+01
   3.655  0.142E+01  0.123E+01
   3.665  0.142E+01  0.123E+01
   3.675  0.142E+01  0.123E+01
   3.685  0.141E+01  0.123E+01
   3.695  0.142E+01  0.123E+01
   3.705  0.143E+01  0.124E+01
   3.715  0.142E+01  0.124E+01
   3.725  0.142E+01  0.124E+01
   3.735  0.142E+01  0.124E+01
   3.745  0.142E+01  0.124E+01
   3.755  0.142E+01  0.124E+01
   3.765  0.142E+01  0.124E+01
   3.775  0.142E+01  0.124E+01
   3.785  0.141E+01  0.123E+01
   3.795  0.141E+01  0.123E+01
   3.805  0.141E+01  0.123E+01
   3.815  0.141E+01  0.123E+01
   3.825  0.141E+01  0.123E+01
   3.835  0.140E+01  0.123E+01
   3.845  0.140E+01  0.122E+01
   3.855  0.140E+01  0.122E+01
   3.865  0.140E+01  0.122E+01
   3.875  0.139E+01  0.122E+01
   3.885  0.139E+01  0.122E+01
   3.895  0.139E+01  0.121E+01
   3.905  0.138E+01  0.121E+01
   3.915  0.138E+01  0.121E+01
   3.925  0.138E+01  0.121E+01
   3.935  0.137E+01  0.120E+01
   3.945  0.137E+01  0.120E+01
   3.955  0.137E+01  0.120E+01
   3.965  0.136E+01  0.120E+01
   3.975  0.136E+01  0.120E+01
   3.985  0.136E+01  0.119E+01
   3.995  0.135E+01  0.119E+01
   4.005  0.135E+01  0.119E+01
   4.015  0.135E+01  0.119E+01
   4.025  0.134E+01  0.118E+01
   4.035  0.134E+01  0.118E+01
   4.045  0.134E+01  0.118E+01
   4.055  0.133E+01  0.118E+01
   4.065  0.133E+01  0.118E+01
   4.075  0.133E+01  0.117E+01
   4.085  0.133E+01  0.117E+01
   4.095  0.133E+01  0.117E+01
   4.105  0.133E+01  0.117E+01
   4.115  0.133E+01  0.117E+01
   4.125  0.133E+01  0.117E+01
   4.135  0.132E+01  0.117E+01
   4.145  0.132E+01  0.116E+01
   4.155  0.132E+01  0.116E+01
   4.165  0.131E+01  0.116E+01
   4.175  0.131E+01  0.115E+01
   4.185  0.131E+01  0.115E+01
   4.195  0.130E+01  0.115E+01
   4.205  0.130E+01  0.115E+01
   4.215  0.130E+01  0.115E+01
   4.225  0.130E+01  0.114E+01
   4.235  0.130E+01  0.114E+01
   4.245  0.130E+01  0.114E+01
   4.255  0.130E+01  0.114E+01
   4.265  0.130E+01  0.114E+01
   4.275  0.130E+01  0.114E+01
   4.285  0.130E+01  0.114E+01
   4.295  0.130E+01  0.114E+01
   4.305  0.130E+01  0.115E+01
   4.315  0.130E+01  0.115E+01
   4.325  0.131E+01  0.115E+01
   4.335  0.131E+01  0.115E+01
   4.345  0.131E+01  0.115E+01
   4.355  0.131E+01  0.115E+01
   4.365  0.131E+01  0.115E+01
   4.375  0.131E+01  0.115E+01
   4.385  0.131E+01  0.115E+01
   4.395  0.131E+01  0.115E+01
   4.405  0.131E+01  0.115E+01
   4.415  0.130E+01  0.115E+01
   4.425  0.130E+01  0.114E+01
   4.435  0.130E+01  0.114E+01
   4.445  0.130E+01  0.114E+01
   4.455  0.129E+01  0.113E+01
   4.465  0.129E+01  0.113E+01
   4.475  0.129E+01  0.113E+01
   4.485  0.128E+01  0.112E+01
   4.495  0.128E+01  0.112E+01
   4.505  0.127E+01  0.111E+01
   4.515  0.127E+01  0.111E+01
   4.525  0.127E+01  0.111E+01
   4.535  0.126E+01  0.110E+01
   4.545  0.126E+01  0.110E+01
   4.555  0.125E+01  0.109E+01
   4.565  0.125E+01  0.109E+01
   4.575  0.124E+01  0.108E+01
   4.585  0.124E+01  0.108E+01
   4.595  0.124E+01  0.107E+01
   4.605  0.123E+01  0.107E+01
   4.615  0.123E+01  0.106E+01
   4.625  0.122E+01  0.106E+01
   4.635  0.122E+01  0.105E+01
   4.645  0.121E+01  0.105E+01
   4.655  0.121E+01  0.104E+01
   4.665  0.120E+01  0.103E+01
   4.675  0.120E+01  0.103E+01
   4.685  0.119E+01  0.102E+01
   4.695  0.119E+01  0.102E+01
   4.705  0.119E+01  0.102E+01
   4.715  0.120E+01  0.102E+01
   4.725  0.120E+01  0.102E+01
   4.735  0.120E+01  0.102E+01
   4.745  0.120E+01  0.102E+01
   4.755  0.120E+01  0.103E+01
   4.765  0.119E+01  0.103E+01
   4.775  0.119E+01  0.103E+01
   4.785  0.119E+01  0.103E+01
   4.795  0.118E+01  0.102E+01
   4.805  0.118E+01  0.102E+01
   4.815  0.117E+01  0.102E+01
   4.825  0.116E+01  0.102E+01
   4.835  0.115E+01  0.102E+01
   4.845  0.114E+01  0.101E+01
   4.855  0.113E+01  0.101E+01
   4.865  0.112E+01  0.100E+01
   4.875  0.111E+01  0.993E+00
   4.885  0.110E+01  0.985E+00
   4.895  0.108E+01  0.976E+00
   4.905  0.106E+01  0.965E+00
   4.915  0.104E+01  0.949E+00
   4.925  0.101E+01  0.928E+00
   4.935  0.983E+00  0.901E+00
   4.945  0.948E+00  0.868E+00
   4.955  0.915E+00  0.836E+00
   4.965  0.885E+00  0.808E+00
   4.975  0.859E+00  0.783E+00
   4.985  0.838E+00  0.761E+00
   4.995  0.819E+00  0.744E+00
   5.005  0.805E+00  0.731E+00
   5.015  0.795E+00  0.723E+00
   5.025  0.786E+00  0.716E+00
   5.035  0.778E+00  0.709E+00
   5.045  0.769E+00  0.702E+00
   5.055  0.761E+00  0.696E+00
   5.065  0.753E+00  0.689E+00
   5.075  0.745E+00  0.682E+00
   5.085  0.737E+00  0.675E+00
   5.095  0.730E+00  0.668E+00
   5.105  0.723E+00  0.661E+00
   5.115  0.715E+00  0.654E+00
   5.125  0.707E+00  0.645E+00
   5.135  0.694E+00  0.634E+00
   5.145  0.682E+00  0.623E+00
   5.155  0.669E+00  0.611E+00
   5.165  0.656E+00  0.599E+00
   5.175  0.643E+00  0.587E+00
   5.185  0.630E+00  0.575E+00
   5.195  0.617E+00  0.563E+00
   5.205  0.604E+00  0.550E+00
   5.215  0.590E+00  0.537E+00
   5.225  0.577E+00  0.524E+00
   5.235  0.567E+00  0.515E+00
   5.245  0.559E+00  0.508E+00
   5.255  0.551E+00  0.500E+00
   5.265  0.543E+00  0.493E+00
   5.275  0.535E+00  0.485E+00
   5.285  0.527E+00  0.478E+00
   5.295  0.519E+00  0.470E+00
   5.305  0.511E+00  0.462E+00
   5.315  0.502E+00  0.454E+00
   5.325  0.494E+00  0.447E+00
   5.335  0.487E+00  0.439E+00
   5.345  0.479E+00  0.432E+00
   5.355  0.471E+00  0.425E+00
   5.365  0.463E+00  0.417E+00
   5.375  0.456E+00  0.410E+00
   5.385  0.448E+00  0.403E+00
   5.395  0.441E+00  0.396E+00
   5.405  0.433E+00  0.389E+00
   5.415  0.426E+00  0.383E+00
   5.425  0.419E+00  0.376E+00
   5.435  0.411E+00  0.369E+00
   5.445  0.404E+00  0.363E+00
   5.455  0.397E+00  0.356E+00
   5.465  0.391E+00  0.350E+00
   5.475  0.384E+00  0.344E+00
   5.485  0.377E+00  0.337E+00
   5.495  0.370E+00  0.331E+00
   5.505  0.364E+00  0.325E+00
   5.515  0.357E+00  0.319E+00
   5.525  0.351E+00  0.314E+00
   5.535  0.345E+00  0.308E+00
   5.545  0.338E+00  0.302E+00
   5.555  0.332E+00  0.297E+00
   5.565  0.326E+00  0.291E+00
   5.575  0.320E+00  0.286E+00
   5.585  0.314E+00  0.280E+00
   5.595  0.307E+00  0.274E+00
   5.605  0.301E+00  0.269E+00
   5.615  0.295E+00  0.263E+00
   5.625  0.288E+00  0.257E+00
   5.635  0.282E+00  0.251E+00
   5.645  0.275E+00  0.245E+00
   5.655  0.268E+00  0.239E+00
   5.665  0.262E+00  0.234E+00
   5.675  0.256E+00  0.229E+00
   5.685  0.250E+00  0.223E+00
   5.695  0.244E+00  0.218E+00
   5.705  0.238E+00  0.213E+00
   5.715  0.232E+00  0.209E+00
   5.725  0.227E+00  0.204E+00
   5.735  0.222E+00  0.200E+00
   5.745  0.217E+00  0.196E+00
   5.755  0.212E+00  0.192E+00
   5.765  0.207E+00  0.188E+00
   5.775  0.203E+00  0.184E+00
   5.785  0.198E+00  0.181E+00
   5.795  0.194E+00  0.177E+00
   5.805  0.190E+00  0.174E+00
   5.815  0.186E+00  0.171E+00
   5.825  0.182E+00  0.169E+00
   5.835  0.179E+00  0.166E+00
   5.845  0.175E+00  0.163E+00
   5.855  0.172E+00  0.161E+00
   5.865  0.169E+00  0.159E+00
   5.875  0.166E+00  0.157E+00
   5.885  0.164E+00  0.155E+00
   5.895  0.161E+00  0.153E+00
   5.905  0.159E+00  0.151E+00
   5.915  0.157E+00  0.150E+00
   5.925  0.154E+00  0.149E+00
   5.935  0.153E+00  0.147E+00
   5.945  0.147E+00  0.141E+00
   5.955  0.966E-01  0.880E-01
   5.965  0.687E-01  0.632E-01
   5.975  0.594E-01  0.551E-01
   5.985  0.527E-01  0.489E-01
   5.995  0.463E-01  0.431E-01
   6.005  0.403E-01  0.376E-01
   6.015  0.348E-01  0.325E-01
   6.025  0.296E-01  0.278E-01
   6.035  0.249E-01  0.234E-01
   6.045  0.206E-01  0.194E-01
   6.055  0.167E-01  0.157E-01
   6.065  0.132E-01  0.125E-01
   6.075  0.101E-01  0.956E-02
   6.085  0.743E-02  0.704E-02
   6.095  0.517E-02  0.490E-02
   6.105  0.331E-02  0.315E-02
   6.115  0.187E-02  0.178E-02
   6.125  0.836E-03  0.798E-03
   6.135  0.213E-03  0.203E-03
   6.145  0.684E-07  0.656E-07
   6.155  0.000E+00  0.000E+00
   6.165  0.000E+00  0.000E+00
   6.175  0.000E+00  0.000E+00
   6.185  0.000E+00  0.000E+00
   6.195  0.000E+00  0.000E+00
   6.205  0.000E+00  0.000E+00
   6.215  0.000E+00  0.000E+00
   6.225  0.000E+00  0.000E+00
   6.235  0.000E+00  0.000E+00
   6.245  0.000E+00  0.000E+00
   6.255  0.000E+00  0.000E+00
   6.265  0.000E+00  0.000E+00
   6.275  0.000E+00  0.000E+00
   6.285  0.000E+00  0.000E+00
   6.295  0.000E+00  0.000E+00
   6.305  0.000E+00  0.000E+00
   6.315  0.000E+00  0.000E+00
   6.325  0.000E+00  0.000E+00
   6.335  0.000E+00  0.000E+00
   6.345  0.000E+00  0.000E+00
   6.355  0.000E+00  0.000E+00
   6.365  0.000E+00  0.000E+00
   6.375  0.000E+00  0.000E+00
   6.385  0.000E+00  0.000E+00
   6.395  0.000E+00  0.000E+00
   6.405  0.000E+00  0.000E+00
   6.415  0.000E+00  0.000E+00
   6.425  0.000E+00  0.000E+00
   6.435  0.000E+00  0.000E+00
   6.445  0.000E+00  0.000E+00
   6.455  0.000E+00  0.000E+00
   6.465  0.000E+00  0.000E+00
   6.475  0.000E+00  0.000E+00
   6.485  0.000E+00  0.000E+00
   6.495  0.000E+00  0.000E+00
   6.505  0.000E+00  0.000E+00
   6.515  0.000E+00  0.000E+00
   6.525  0.000E+00  0.000E+00
   6.535  0.000E+00  0.000E+00
   6.545  0.000E+00  0.000E+00
   6.555  0.000E+00  0.000E+00
   6.565  0.000E+00  0.000E+00
   6.575  0.000E+00  0.000E+00
   6.585  0.000E+00  0.000E+00
   6.595  0.000E+00  0.000E+00
   6.605  0.000E+00  0.000E+00
   6.615  0.000E+00  0.000E+00
   6.625  0.231E-03  0.208E-03
   6.635  0.142E-02  0.127E-02
   6.645  0.361E-02  0.323E-02
   6.655  0.680E-02  0.607E-02
   6.665  0.110E-01  0.979E-02
   6.675  0.162E-01  0.144E-01
   6.685  0.224E-01  0.198E-01
   6.695  0.296E-01  0.261E-01
   6.705  0.379E-01  0.333E-01
   6.715  0.471E-01  0.412E-01
   6.725  0.573E-01  0.500E-01
   6.735  0.686E-01  0.596E-01
   6.745  0.807E-01  0.699E-01
   6.755  0.920E-01  0.796E-01
   6.765  0.102E+00  0.881E-01
   6.775  0.111E+00  0.955E-01
   6.785  0.118E+00  0.102E+00
   6.795  0.124E+00  0.107E+00
   6.805  0.129E+00  0.111E+00
   6.815  0.132E+00  0.114E+00
   6.825  0.134E+00  0.116E+00
   6.835  0.135E+00  0.117E+00
   6.845  0.135E+00  0.117E+00
   6.855  0.137E+00  0.119E+00
   6.865  0.143E+00  0.125E+00
   6.875  0.150E+00  0.130E+00
   6.885  0.156E+00  0.136E+00
   6.895  0.163E+00  0.143E+00
   6.905  0.170E+00  0.149E+00
   6.915  0.178E+00  0.155E+00
   6.925  0.185E+00  0.162E+00
   6.935  0.192E+00  0.168E+00
   6.945  0.199E+00  0.174E+00
   6.955  0.205E+00  0.180E+00
   6.965  0.212E+00  0.186E+00
   6.975  0.219E+00  0.192E+00
   6.985  0.225E+00  0.198E+00
   6.995  0.232E+00  0.204E+00
   7.005  0.238E+00  0.210E+00
   7.015  0.245E+00  0.216E+00
   7.025  0.251E+00  0.221E+00
   7.035  0.257E+00  0.227E+00
   7.045  0.263E+00  0.232E+00
   7.055  0.270E+00  0.238E+00
   7.065  0.276E+00  0.243E+00
   7.075  0.282E+00  0.249E+00
   7.085  0.287E+00  0.254E+00
   7.095  0.293E+00  0.259E+00
   7.105  0.300E+00  0.265E+00
   7.115  0.307E+00  0.272E+00
   7.125  0.313E+00  0.278E+00
   7.135  0.320E+00  0.284E+00
   7.145  0.327E+00  0.290E+00
   7.155  0.333E+00  0.296E+00
   7.165  0.340E+00  0.302E+00
   7.175  0.347E+00  0.308E+00
   7.185  0.353E+00  0.314E+00
   7.195  0.359E+00  0.320E+00
   7.205  0.366E+00  0.325E+00
   7.215  0.372E+00  0.331E+00
   7.225  0.378E+00  0.337E+00
   7.235  0.385E+00  0.343E+00
   7.245  0.391E+00  0.349E+00
   7.255  0.397E+00  0.354E+00
   7.265  0.403E+00  0.360E+00
   7.275  0.409E+00  0.365E+00
   7.285  0.415E+00  0.371E+00
   7.295  0.421E+00  0.377E+00
   7.305  0.427E+00  0.383E+00
   7.315  0.434E+00  0.389E+00
   7.325  0.440E+00  0.395E+00
   7.335  0.447E+00  0.401E+00
   7.345  0.453E+00  0.407E+00
   7.355  0.460E+00  0.413E+00
   7.365  0.467E+00  0.419E+00
   7.375  0.474E+00  0.426E+00
   7.385  0.481E+00  0.432E+00
   7.395  0.488E+00  0.439E+00
   7.405  0.495E+00  0.446E+00
   7.415  0.502E+00  0.453E+00
   7.425  0.510E+00  0.460E+00
   7.435  0.517E+00  0.467E+00
   7.445  0.525E+00  0.474E+00
   7.455  0.533E+00  0.481E+00
   7.465  0.541E+00  0.489E+00
   7.475  0.549E+00  0.496E+00
   7.485  0.557E+00  0.504E+00
   7.495  0.565E+00  0.512E+00
   7.505  0.574E+00  0.520E+00
   7.515  0.582E+00  0.528E+00
   7.525  0.591E+00  0.536E+00
   7.535  0.599E+00  0.544E+00
   7.545  0.608E+00  0.552E+00
   7.555  0.617E+00  0.561E+00
   7.565  0.626E+00  0.569E+00
   7.575  0.635E+00  0.578E+00
   7.585  0.644E+00  0.587E+00
   7.595  0.654E+00  0.596E+00
   7.605  0.663E+00  0.605E+00
   7.615  0.676E+00  0.618E+00
   7.625  0.689E+00  0.630E+00
   7.635  0.696E+00  0.636E+00
   7.645  0.703E+00  0.641E+00
   7.655  0.711E+00  0.647E+00
   7.665  0.718E+00  0.654E+00
   7.675  0.726E+00  0.660E+00
   7.685  0.733E+00  0.666E+00
   7.695  0.741E+00  0.672E+00
   7.705  0.749E+00  0.679E+00
   7.715  0.756E+00  0.685E+00
   7.725  0.764E+00  0.691E+00
   7.735  0.771E+00  0.697E+00
   7.745  0.778E+00  0.703E+00
   7.755  0.785E+00  0.709E+00
   7.765  0.793E+00  0.715E+00
   7.775  0.799E+00  0.721E+00
   7.785  0.806E+00  0.727E+00
   7.795  0.813E+00  0.733E+00
   7.805  0.820E+00  0.738E+00
   7.815  0.826E+00  0.744E+00
   7.825  0.833E+00  0.749E+00
   7.835  0.839E+00  0.755E+00
   7.845  0.846E+00  0.761E+00
   7.855  0.853E+00  0.767E+00
   7.865  0.861E+00  0.774E+00
   7.875  0.868E+00  0.780E+00
   7.885  0.875E+00  0.786E+00
   7.895  0.886E+00  0.796E+00
   7.905  0.897E+00  0.805E+00
   7.915  0.908E+00  0.815E+00
   7.925  0.920E+00  0.825E+00
   7.935  0.932E+00  0.835E+00
   7.945  0.944E+00  0.846E+00
   7.955  0.956E+00  0.857E+00
   7.965  0.969E+00  0.868E+00
   7.975  0.982E+00  0.879E+00
   7.985  0.996E+00  0.891E+00
   7.995  0.101E+01  0.902E+00
   8.005  0.102E+01  0.915E+00
   8.015  0.104E+01  0.927E+00
   8.025  0.105E+01  0.940E+00
   8.035  0.107E+01  0.952E+00
   8.045  0.108E+01  0.966E+00
   8.055  0.110E+01  0.979E+00
   8.065  0.111E+01  0.993E+00
   8.075  0.113E+01  0.101E+01
   8.085  0.115E+01  0.102E+01
   8.095  0.116E+01  0.104E+01
   8.105  0.118E+01  0.105E+01
   8.115  0.120E+01  0.107E+01
   8.125  0.121E+01  0.108E+01
   8.135  0.123E+01  0.110E+01
   8.145  0.125E+01  0.111E+01
   8.155  0.127E+01  0.113E+01
   8.165  0.129E+01  0.115E+01
   8.175  0.132E+01  0.117E+01
   8.185  0.134E+01  0.119E+01
   8.195  0.136E+01  0.121E+01
   8.205  0.139E+01  0.123E+01
   8.215  0.141E+01  0.125E+01
   8.225  0.144E+01  0.128E+01
   8.235  0.146E+01  0.130E+01
   8.245  0.148E+01  0.132E+01
   8.255  0.151E+01  0.134E+01
   8.265  0.153E+01  0.136E+01
   8.275  0.154E+01  0.137E+01
   8.285  0.156E+01  0.139E+01
   8.295  0.158E+01  0.140E+01
   8.305  0.160E+01  0.142E+01
   8.315  0.162E+01  0.144E+01
   8.325  0.165E+01  0.147E+01
   8.335  0.169E+01  0.150E+01
   8.345  0.172E+01  0.153E+01
   8.355  0.175E+01  0.156E+01
   8.365  0.178E+01  0.158E+01
   8.375  0.180E+01  0.161E+01
   8.385  0.183E+01  0.163E+01
   8.395  0.185E+01  0.166E+01
   8.405  0.188E+01  0.168E+01
   8.415  0.191E+01  0.171E+01
   8.425  0.194E+01  0.173E+01
   8.435  0.196E+01  0.175E+01
   8.445  0.198E+01  0.177E+01
   8.455  0.200E+01  0.178E+01
   8.465  0.201E+01  0.179E+01
   8.475  0.202E+01  0.180E+01
   8.485  0.202E+01  0.180E+01
   8.495  0.203E+01  0.181E+01
   8.505  0.204E+01  0.181E+01
   8.515  0.204E+01  0.182E+01
   8.525  0.205E+01  0.182E+01
   8.535  0.206E+01  0.183E+01
   8.545  0.206E+01  0.183E+01
   8.555  0.206E+01  0.183E+01
   8.565  0.206E+01  0.183E+01
   8.575  0.206E+01  0.183E+01
   8.585  0.206E+01  0.182E+01
   8.595  0.205E+01  0.182E+01
   8.605  0.205E+01  0.181E+01
   8.615  0.204E+01  0.181E+01
   8.625  0.203E+01  0.180E+01
   8.635  0.202E+01  0.179E+01
   8.645  0.200E+01  0.177E+01
   8.655  0.199E+01  0.176E+01
   8.665  0.191E+01  0.168E+01
   8.675  0.188E+01  0.166E+01
   8.685  0.186E+01  0.164E+01
   8.695  0.183E+01  0.161E+01
   8.705  0.180E+01  0.159E+01
   8.715  0.177E+01  0.156E+01
   8.725  0.174E+01  0.153E+01
   8.735  0.171E+01  0.151E+01
   8.745  0.167E+01  0.148E+01
   8.755  0.163E+01  0.144E+01
   8.765  0.159E+01  0.141E+01
   8.775  0.155E+01  0.137E+01
   8.785  0.149E+01  0.132E+01
   8.795  0.143E+01  0.127E+01
   8.805  0.137E+01  0.122E+01
   8.815  0.129E+01  0.115E+01
   8.825  0.121E+01  0.108E+01
   8.835  0.113E+01  0.101E+01
   8.845  0.107E+01  0.949E+00
   8.855  0.101E+01  0.903E+00
   8.865  0.974E+00  0.869E+00
   8.875  0.940E+00  0.837E+00
   8.885  0.907E+00  0.808E+00
   8.895  0.876E+00  0.781E+00
   8.905  0.848E+00  0.756E+00
   8.915  0.822E+00  0.732E+00
   8.925  0.798E+00  0.711E+00
   8.935  0.776E+00  0.691E+00
   8.945  0.756E+00  0.674E+00
   8.955  0.738E+00  0.658E+00
   8.965  0.726E+00  0.648E+00
   8.975  0.718E+00  0.641E+00
   8.985  0.710E+00  0.636E+00
   8.995  0.703E+00  0.630E+00
   9.005  0.697E+00  0.626E+00
   9.015  0.691E+00  0.622E+00
   9.025  0.686E+00  0.619E+00
   9.035  0.682E+00  0.616E+00
   9.045  0.677E+00  0.613E+00
   9.055  0.673E+00  0.610E+00
   9.065  0.669E+00  0.608E+00
   9.075  0.664E+00  0.605E+00
   9.085  0.660E+00  0.603E+00
   9.095  0.657E+00  0.601E+00
   9.105  0.653E+00  0.599E+00
   9.115  0.651E+00  0.599E+00
   9.125  0.648E+00  0.598E+00
   9.135  0.647E+00  0.598E+00
   9.145  0.646E+00  0.599E+00
   9.155  0.645E+00  0.601E+00
   9.165  0.646E+00  0.603E+00
   9.175  0.648E+00  0.607E+00
   9.185  0.653E+00  0.612E+00
   9.195  0.659E+00  0.619E+00
   9.205  0.668E+00  0.628E+00
   9.215  0.679E+00  0.638E+00
   9.225  0.692E+00  0.651E+00
   9.235  0.707E+00  0.665E+00
   9.245  0.724E+00  0.681E+00
   9.255  0.744E+00  0.698E+00
   9.265  0.765E+00  0.718E+00
   9.275  0.788E+00  0.739E+00
   9.285  0.813E+00  0.762E+00
   9.295  0.840E+00  0.787E+00
   9.305  0.869E+00  0.813E+00
   9.315  0.900E+00  0.842E+00
   9.325  0.932E+00  0.872E+00
   9.335  0.966E+00  0.904E+00
   9.345  0.100E+01  0.940E+00
   9.355  0.105E+01  0.981E+00
   9.365  0.110E+01  0.103E+01
   9.375  0.118E+01  0.110E+01
   9.385  0.128E+01  0.120E+01
   9.395  0.150E+01  0.140E+01
   9.405  0.172E+01  0.161E+01
   9.415  0.187E+01  0.175E+01
   9.425  0.195E+01  0.183E+01
   9.435  0.200E+01  0.187E+01
   9.445  0.204E+01  0.191E+01
   9.455  0.206E+01  0.193E+01
   9.465  0.206E+01  0.194E+01
   9.475  0.295E+01  0.287E+01
   9.485  0.301E+01  0.299E+01
   9.495  0.260E+01  0.255E+01
   9.505  0.247E+01  0.239E+01
   9.515  0.248E+01  0.239E+01
   9.525  0.254E+01  0.243E+01
   9.535  0.259E+01  0.247E+01
   9.545  0.263E+01  0.249E+01
   9.555  0.266E+01  0.251E+01
   9.565  0.268E+01  0.251E+01
   9.575  0.269E+01  0.250E+01
   9.585  0.268E+01  0.249E+01
   9.595  0.267E+01  0.246E+01
   9.605  0.265E+01  0.242E+01
   9.615  0.261E+01  0.238E+01
   9.625  0.257E+01  0.232E+01
   9.635  0.251E+01  0.226E+01
   9.645  0.246E+01  0.220E+01
   9.655  0.241E+01  0.215E+01
   9.665  0.235E+01  0.209E+01
   9.675  0.230E+01  0.204E+01
   9.685  0.225E+01  0.199E+01
   9.695  0.220E+01  0.194E+01
   9.705  0.215E+01  0.190E+01
   9.715  0.214E+01  0.189E+01
   9.725  0.211E+01  0.186E+01
   9.735  0.208E+01  0.183E+01
   9.745  0.204E+01  0.179E+01
   9.755  0.202E+01  0.177E+01
   9.765  0.202E+01  0.177E+01
   9.775  0.203E+01  0.178E+01
   9.785  0.205E+01  0.180E+01
   9.795  0.209E+01  0.183E+01
   9.805  0.213E+01  0.188E+01
   9.815  0.198E+01  0.172E+01
   9.825  0.184E+01  0.159E+01
   9.835  0.180E+01  0.156E+01
   9.845  0.177E+01  0.153E+01
   9.855  0.174E+01  0.150E+01
   9.865  0.171E+01  0.147E+01
   9.875  0.168E+01  0.144E+01
   9.885  0.165E+01  0.142E+01
   9.895  0.162E+01  0.139E+01
   9.905  0.159E+01  0.137E+01
   9.915  0.156E+01  0.135E+01
   9.925  0.154E+01  0.132E+01
   9.935  0.152E+01  0.131E+01
   9.945  0.150E+01  0.129E+01
   9.955  0.148E+01  0.128E+01
   9.965  0.147E+01  0.126E+01
   9.975  0.145E+01  0.125E+01
   9.985  0.144E+01  0.124E+01
   9.995  0.142E+01  0.122E+01
  10.005  0.141E+01  0.121E+01
  10.015  0.140E+01  0.120E+01
  10.025  0.138E+01  0.119E+01
  10.035  0.137E+01  0.118E+01
  10.045  0.136E+01  0.117E+01
  10.055  0.135E+01  0.116E+01
  10.065  0.134E+01  0.115E+01
  10.075  0.133E+01  0.114E+01
  10.085  0.132E+01  0.114E+01
  10.095  0.131E+01  0.113E+01
  10.105  0.131E+01  0.112E+01
  10.115  0.130E+01  0.112E+01
  10.125  0.129E+01  0.111E+01
  10.135  0.129E+01  0.111E+01
  10.145  0.128E+01  0.110E+01
  10.155  0.127E+01  0.109E+01
  10.165  0.126E+01  0.109E+01
  10.175  0.126E+01  0.108E+01
  10.185  0.125E+01  0.108E+01
  10.195  0.124E+01  0.107E+01
  10.205  0.124E+01  0.106E+01
  10.215  0.123E+01  0.106E+01
  10.225  0.122E+01  0.105E+01
  10.235  0.121E+01  0.104E+01
  10.245  0.121E+01  0.104E+01
  10.255  0.120E+01  0.103E+01
  10.265  0.119E+01  0.102E+01
  10.275  0.118E+01  0.101E+01
  10.285  0.117E+01  0.101E+01
  10.295  0.116E+01  0.998E+00
  10.305  0.115E+01  0.990E+00
  10.315  0.114E+01  0.981E+00
  10.325  0.113E+01  0.971E+00
  10.335  0.111E+01  0.962E+00
  10.345  0.110E+01  0.952E+00
  10.355  0.109E+01  0.942E+00
  10.365  0.108E+01  0.932E+00
  10.375  0.106E+01  0.921E+00
  10.385  0.105E+01  0.910E+00
  10.395  0.104E+01  0.899E+00
  10.405  0.102E+01  0.887E+00
  10.415  0.101E+01  0.876E+00
  10.425  0.993E+00  0.865E+00
  10.435  0.979E+00  0.854E+00
  10.445  0.971E+00  0.848E+00
  10.455  0.970E+00  0.847E+00
  10.465  0.970E+00  0.847E+00
  10.475  0.970E+00  0.847E+00
  10.485  0.970E+00  0.847E+00
  10.495  0.970E+00  0.848E+00
  10.505  0.971E+00  0.849E+00
  10.515  0.973E+00  0.851E+00
  10.525  0.975E+00  0.853E+00
  10.535  0.978E+00  0.855E+00
  10.545  0.981E+00  0.858E+00
  10.555  0.985E+00  0.862E+00
  10.565  0.990E+00  0.866E+00
  10.575  0.995E+00  0.870E+00
  10.585  0.100E+01  0.875E+00
  10.595  0.101E+01  0.881E+00
  10.605  0.102E+01  0.887E+00
  10.615  0.102E+01  0.893E+00
  10.625  0.103E+01  0.900E+00
  10.635  0.104E+01  0.908E+00
  10.645  0.105E+01  0.916E+00
  10.655  0.107E+01  0.925E+00
  10.665  0.108E+01  0.934E+00
  10.675  0.109E+01  0.944E+00
  10.685  0.110E+01  0.950E+00
  10.695  0.110E+01  0.946E+00
  10.705  0.110E+01  0.942E+00
  10.715  0.110E+01  0.938E+00
  10.725  0.110E+01  0.934E+00
  10.735  0.110E+01  0.930E+00
  10.745  0.109E+01  0.925E+00
  10.755  0.109E+01  0.920E+00
  10.765  0.109E+01  0.915E+00
  10.775  0.108E+01  0.901E+00
  10.785  0.110E+01  0.915E+00
  10.795  0.113E+01  0.933E+00
  10.805  0.115E+01  0.948E+00
  10.815  0.118E+01  0.962E+00
  10.825  0.120E+01  0.974E+00
  10.835  0.122E+01  0.984E+00
  10.845  0.124E+01  0.993E+00
  10.855  0.126E+01  0.100E+01
  10.865  0.128E+01  0.101E+01
  10.875  0.130E+01  0.101E+01
  10.885  0.131E+01  0.101E+01
  10.895  0.133E+01  0.102E+01
  10.905  0.134E+01  0.102E+01
  10.915  0.135E+01  0.102E+01
  10.925  0.137E+01  0.102E+01
  10.935  0.138E+01  0.102E+01
  10.945  0.139E+01  0.103E+01
  10.955  0.141E+01  0.103E+01
  10.965  0.142E+01  0.103E+01
  10.975  0.144E+01  0.104E+01
  10.985  0.145E+01  0.104E+01
  10.995  0.147E+01  0.104E+01
  11.005  0.148E+01  0.105E+01
  11.015  0.149E+01  0.105E+01
  11.025  0.149E+01  0.104E+01
  11.035  0.148E+01  0.103E+01
  11.045  0.145E+01  0.101E+01
  11.055  0.142E+01  0.986E+00
  11.065  0.140E+01  0.975E+00
  11.075  0.139E+01  0.965E+00
  11.085  0.138E+01  0.955E+00
  11.095  0.136E+01  0.943E+00
  11.105  0.135E+01  0.930E+00
  11.115  0.133E+01  0.917E+00
  11.125  0.132E+01  0.905E+00
  11.135  0.130E+01  0.895E+00
  11.145  0.129E+01  0.885E+00
  11.155  0.128E+01  0.877E+00
  11.165  0.127E+01  0.868E+00
  11.175  0.126E+01  0.859E+00
  11.185  0.125E+01  0.849E+00
  11.195  0.124E+01  0.839E+00
  11.205  0.123E+01  0.830E+00
  11.215  0.122E+01  0.822E+00
  11.225  0.121E+01  0.815E+00
  11.235  0.120E+01  0.809E+00
  11.245  0.119E+01  0.803E+00
  11.255  0.118E+01  0.793E+00
  11.265  0.116E+01  0.780E+00
  11.275  0.114E+01  0.771E+00
  11.285  0.113E+01  0.764E+00
  11.295  0.113E+01  0.760E+00
  11.305  0.113E+01  0.756E+00
  11.315  0.113E+01  0.753E+00
  11.325  0.113E+01  0.750E+00
  11.335  0.113E+01  0.748E+00
  11.345  0.113E+01  0.746E+00
  11.355  0.113E+01  0.744E+00
  11.365  0.113E+01  0.742E+00
  11.375  0.113E+01  0.741E+00
  11.385  0.113E+01  0.739E+00
  11.395  0.114E+01  0.738E+00
  11.405  0.114E+01  0.736E+00
  11.415  0.113E+01  0.733E+00
  11.425  0.113E+01  0.730E+00
  11.435  0.113E+01  0.727E+00
  11.445  0.113E+01  0.723E+00
  11.455  0.112E+01  0.719E+00
  11.465  0.112E+01  0.714E+00
  11.475  0.111E+01  0.710E+00
  11.485  0.111E+01  0.706E+00
  11.495  0.110E+01  0.702E+00
  11.505  0.110E+01  0.698E+00
  11.515  0.110E+01  0.695E+00
  11.525  0.109E+01  0.692E+00
  11.535  0.109E+01  0.690E+00
  11.545  0.109E+01  0.689E+00
  11.555  0.109E+01  0.691E+00
  11.565  0.110E+01  0.695E+00
  11.575  0.111E+01  0.702E+00
  11.585  0.112E+01  0.708E+00
  11.595  0.111E+01  0.701E+00
  11.605  0.111E+01  0.694E+00
  11.615  0.110E+01  0.687E+00
  11.625  0.110E+01  0.681E+00
  11.635  0.109E+01  0.675E+00
  11.645  0.109E+01  0.668E+00
  11.655  0.108E+01  0.662E+00
  11.665  0.108E+01  0.657E+00
  11.675  0.107E+01  0.651E+00
  11.685  0.107E+01  0.646E+00
  11.695  0.106E+01  0.640E+00
  11.705  0.106E+01  0.635E+00
  11.715  0.105E+01  0.630E+00
  11.725  0.105E+01  0.625E+00
  11.735  0.105E+01  0.621E+00
  11.745  0.104E+01  0.616E+00
  11.755  0.104E+01  0.611E+00
  11.765  0.104E+01  0.606E+00
  11.775  0.103E+01  0.602E+00
  11.785  0.103E+01  0.597E+00
  11.795  0.102E+01  0.593E+00
  11.805  0.102E+01  0.588E+00
  11.815  0.102E+01  0.584E+00
  11.825  0.101E+01  0.579E+00
  11.835  0.101E+01  0.575E+00
  11.845  0.100E+01  0.570E+00
  11.855  0.998E+00  0.566E+00
  11.865  0.993E+00  0.561E+00
  11.875  0.988E+00  0.557E+00
  11.885  0.983E+00  0.552E+00
  11.895  0.977E+00  0.548E+00
  11.905  0.971E+00  0.543E+00
  11.915  0.966E+00  0.538E+00
  11.925  0.984E+00  0.551E+00
  11.935  0.105E+01  0.599E+00
  11.945  0.110E+01  0.632E+00
  11.955  0.113E+01  0.649E+00
  11.965  0.113E+01  0.653E+00
  11.975  0.112E+01  0.642E+00
  11.985  0.109E+01  0.618E+00
  11.995  0.103E+01  0.581E+00
  12.005  0.973E+00  0.540E+00
  12.015  0.966E+00  0.535E+00
  12.025  0.105E+01  0.590E+00
  12.035  0.115E+01  0.644E+00
  12.045  0.114E+01  0.638E+00
  12.055  0.110E+01  0.612E+00
  12.065  0.107E+01  0.590E+00
  12.075  0.104E+01  0.570E+00
  12.085  0.102E+01  0.554E+00
  12.095  0.998E+00  0.542E+00
  12.105  0.986E+00  0.534E+00
  12.115  0.979E+00  0.529E+00
  12.125  0.974E+00  0.525E+00
  12.135  0.969E+00  0.521E+00
  12.145  0.964E+00  0.517E+00
  12.155  0.959E+00  0.514E+00
  12.165  0.954E+00  0.511E+00
  12.175  0.950E+00  0.508E+00
  12.185  0.946E+00  0.505E+00
  12.195  0.942E+00  0.502E+00
  12.205  0.938E+00  0.499E+00
  12.215  0.934E+00  0.497E+00
  12.225  0.931E+00  0.495E+00
  12.235  0.928E+00  0.493E+00
  12.245  0.925E+00  0.491E+00
  12.255  0.923E+00  0.490E+00
  12.265  0.920E+00  0.488E+00
  12.275  0.918E+00  0.487E+00
  12.285  0.916E+00  0.486E+00
  12.295  0.915E+00  0.485E+00
  12.305  0.913E+00  0.484E+00
  12.315  0.912E+00  0.484E+00
  12.325  0.911E+00  0.484E+00
  12.335  0.910E+00  0.483E+00
  12.345  0.910E+00  0.483E+00
  12.355  0.909E+00  0.484E+00
  12.365  0.909E+00  0.484E+00
  12.375  0.910E+00  0.485E+00
  12.385  0.911E+00  0.486E+00
  12.395  0.912E+00  0.487E+00
  12.405  0.914E+00  0.488E+00
  12.415  0.916E+00  0.490E+00
  12.425  0.919E+00  0.492E+00
  12.435  0.923E+00  0.495E+00
  12.445  0.928E+00  0.498E+00
  12.455  0.934E+00  0.501E+00
  12.465  0.941E+00  0.505E+00
  12.475  0.947E+00  0.509E+00
  12.485  0.955E+00  0.513E+00
  12.495  0.963E+00  0.518E+00
  12.505  0.971E+00  0.523E+00
  12.515  0.980E+00  0.528E+00
  12.525  0.992E+00  0.534E+00
  12.535  0.100E+01  0.541E+00
  12.545  0.102E+01  0.547E+00
  12.555  0.103E+01  0.554E+00
  12.565  0.104E+01  0.562E+00
  12.575  0.105E+01  0.569E+00
  12.585  0.107E+01  0.577E+00
  12.595  0.108E+01  0.585E+00
  12.605  0.110E+01  0.593E+00
  12.615  0.111E+01  0.602E+00
  12.625  0.113E+01  0.610E+00
  12.635  0.114E+01  0.619E+00
  12.645  0.116E+01  0.629E+00
  12.655  0.118E+01  0.638E+00
  12.665  0.119E+01  0.648E+00
  12.675  0.121E+01  0.658E+00
  12.685  0.123E+01  0.669E+00
  12.695  0.125E+01  0.680E+00
  12.705  0.126E+01  0.688E+00
  12.715  0.127E+01  0.693E+00
  12.725  0.128E+01  0.697E+00
  12.735  0.129E+01  0.701E+00
  12.745  0.130E+01  0.704E+00
  12.755  0.131E+01  0.706E+00
  12.765  0.131E+01  0.708E+00
  12.775  0.132E+01  0.708E+00
  12.785  0.131E+01  0.705E+00
  12.795  0.131E+01  0.701E+00
  12.805  0.130E+01  0.696E+00
  12.815  0.129E+01  0.689E+00
  12.825  0.126E+01  0.673E+00
  12.835  0.123E+01  0.658E+00
  12.845  0.120E+01  0.644E+00
  12.855  0.117E+01  0.631E+00
  12.865  0.115E+01  0.620E+00
  12.875  0.113E+01  0.610E+00
  12.885  0.112E+01  0.601E+00
  12.895  0.110E+01  0.593E+00
  12.905  0.109E+01  0.586E+00
  12.915  0.108E+01  0.581E+00
  12.925  0.107E+01  0.576E+00
  12.935  0.106E+01  0.571E+00
  12.945  0.106E+01  0.566E+00
  12.955  0.105E+01  0.561E+00
  12.965  0.104E+01  0.555E+00
  12.975  0.103E+01  0.549E+00
  12.985  0.102E+01  0.543E+00
  12.995  0.101E+01  0.537E+00
  13.005  0.996E+00  0.532E+00
  13.015  0.986E+00  0.526E+00
  13.025  0.977E+00  0.521E+00
  13.035  0.968E+00  0.515E+00
  13.045  0.959E+00  0.510E+00
  13.055  0.950E+00  0.505E+00
  13.065  0.941E+00  0.500E+00
  13.075  0.932E+00  0.495E+00
  13.085  0.923E+00  0.490E+00
  13.095  0.914E+00  0.485E+00
  13.105  0.905E+00  0.480E+00
  13.115  0.896E+00  0.475E+00
  13.125  0.887E+00  0.470E+00
  13.135  0.878E+00  0.465E+00
  13.145  0.868E+00  0.459E+00
  13.155  0.859E+00  0.454E+00
  13.165  0.850E+00  0.449E+00
  13.175  0.841E+00  0.444E+00
  13.185  0.833E+00  0.440E+00
  13.195  0.825E+00  0.436E+00
  13.205  0.817E+00  0.431E+00
  13.215  0.809E+00  0.427E+00
  13.225  0.801E+00  0.423E+00
  13.235  0.793E+00  0.419E+00
  13.245  0.785E+00  0.414E+00
  13.255  0.777E+00  0.410E+00
  13.265  0.769E+00  0.406E+00
  13.275  0.761E+00  0.402E+00
  13.285  0.753E+00  0.398E+00
  13.295  0.745E+00  0.394E+00
  13.305  0.738E+00  0.390E+00
  13.315  0.730E+00  0.386E+00
  13.325  0.722E+00  0.382E+00
  13.335  0.715E+00  0.378E+00
  13.345  0.707E+00  0.374E+00
  13.355  0.699E+00  0.370E+00
  13.365  0.692E+00  0.366E+00
  13.375  0.684E+00  0.362E+00
  13.385  0.677E+00  0.359E+00
  13.395  0.669E+00  0.355E+00
  13.405  0.662E+00  0.351E+00
  13.415  0.655E+00  0.347E+00
  13.425  0.647E+00  0.343E+00
  13.435  0.640E+00  0.340E+00
  13.445  0.633E+00  0.336E+00
  13.455  0.626E+00  0.332E+00
  13.465  0.618E+00  0.329E+00
  13.475  0.611E+00  0.325E+00
  13.485  0.604E+00  0.321E+00
  13.495  0.597E+00  0.318E+00
  13.505  0.590E+00  0.314E+00
  13.515  0.583E+00  0.311E+00
  13.525  0.576E+00  0.307E+00
  13.535  0.569E+00  0.304E+00
  13.545  0.562E+00  0.300E+00
  13.555  0.556E+00  0.297E+00
  13.565  0.549E+00  0.293E+00
  13.575  0.542E+00  0.290E+00
  13.585  0.535E+00  0.286E+00
  13.595  0.529E+00  0.283E+00
  13.605  0.522E+00  0.279E+00
  13.615  0.515E+00  0.276E+00
  13.625  0.509E+00  0.273E+00
  13.635  0.502E+00  0.269E+00
  13.645  0.496E+00  0.266E+00
  13.655  0.490E+00  0.263E+00
  13.665  0.485E+00  0.260E+00
  13.675  0.481E+00  0.258E+00
  13.685  0.480E+00  0.257E+00
  13.695  0.482E+00  0.258E+00
  13.705  0.487E+00  0.261E+00
  13.715  0.495E+00  0.265E+00
  13.725  0.506E+00  0.271E+00
  13.735  0.520E+00  0.279E+00
  13.745  0.537E+00  0.288E+00
  13.755  0.557E+00  0.299E+00
  13.765  0.580E+00  0.312E+00
  13.775  0.605E+00  0.326E+00
  13.785  0.634E+00  0.343E+00
  13.795  0.663E+00  0.360E+00
  13.805  0.686E+00  0.373E+00
  13.815  0.701E+00  0.383E+00
  13.825  0.743E+00  0.407E+00
  13.835  0.806E+00  0.441E+00
  13.845  0.823E+00  0.448E+00
  13.855  0.795E+00  0.432E+00
  13.865  0.742E+00  0.406E+00
  13.875  0.692E+00  0.381E+00
  13.885  0.645E+00  0.356E+00
  13.895  0.600E+00  0.333E+00
  13.905  0.559E+00  0.311E+00
  13.915  0.519E+00  0.290E+00
  13.925  0.483E+00  0.270E+00
  13.935  0.449E+00  0.252E+00
  13.945  0.418E+00  0.235E+00
  13.955  0.389E+00  0.219E+00
  13.965  0.363E+00  0.204E+00
  13.975  0.340E+00  0.191E+00
  13.985  0.320E+00  0.179E+00
  13.995  0.302E+00  0.169E+00
  14.005  0.287E+00  0.160E+00
  14.015  0.275E+00  0.153E+00
  14.025  0.265E+00  0.147E+00
  14.035  0.258E+00  0.143E+00
  14.045  0.254E+00  0.141E+00
  14.055  0.252E+00  0.140E+00
  14.065  0.251E+00  0.139E+00
  14.075  0.249E+00  0.138E+00
  14.085  0.248E+00  0.138E+00
  14.095  0.247E+00  0.137E+00
  14.105  0.246E+00  0.137E+00
  14.115  0.245E+00  0.137E+00
  14.125  0.244E+00  0.136E+00
  14.135  0.243E+00  0.136E+00
  14.145  0.242E+00  0.136E+00
  14.155  0.241E+00  0.135E+00
  14.165  0.241E+00  0.135E+00
  14.175  0.240E+00  0.135E+00
  14.185  0.239E+00  0.135E+00
  14.195  0.238E+00  0.134E+00
  14.205  0.238E+00  0.134E+00
  14.215  0.237E+00  0.134E+00
  14.225  0.238E+00  0.135E+00
  14.235  0.239E+00  0.136E+00
  14.245  0.240E+00  0.137E+00
  14.255  0.241E+00  0.138E+00
  14.265  0.242E+00  0.138E+00
  14.275  0.242E+00  0.139E+00
  14.285  0.243E+00  0.140E+00
  14.295  0.244E+00  0.140E+00
  14.305  0.244E+00  0.141E+00
  14.315  0.245E+00  0.142E+00
  14.325  0.245E+00  0.142E+00
  14.335  0.246E+00  0.143E+00
  14.345  0.246E+00  0.144E+00
  14.355  0.247E+00  0.144E+00
  14.365  0.247E+00  0.145E+00
  14.375  0.248E+00  0.145E+00
  14.385  0.248E+00  0.146E+00
  14.395  0.248E+00  0.146E+00
  14.405  0.249E+00  0.147E+00
  14.415  0.249E+00  0.147E+00
  14.425  0.249E+00  0.147E+00
  14.435  0.249E+00  0.148E+00
  14.445  0.249E+00  0.148E+00
  14.455  0.249E+00  0.148E+00
  14.465  0.249E+00  0.148E+00
  14.475  0.249E+00  0.149E+00
  14.485  0.249E+00  0.149E+00
  14.495  0.249E+00  0.149E+00
  14.505  0.249E+00  0.149E+00
  14.515  0.249E+00  0.149E+00
  14.525  0.248E+00  0.149E+00
  14.535  0.248E+00  0.149E+00
  14.545  0.248E+00  0.149E+00
  14.555  0.247E+00  0.149E+00
  14.565  0.247E+00  0.149E+00
  14.575  0.247E+00  0.149E+00
  14.585  0.246E+00  0.149E+00
  14.595  0.246E+00  0.149E+00
  14.605  0.246E+00  0.149E+00
  14.615  0.247E+00  0.150E+00
  14.625  0.248E+00  0.152E+00
  14.635  0.249E+00  0.153E+00
  14.645  0.250E+00  0.153E+00
  14.655  0.250E+00  0.154E+00
  14.665  0.250E+00  0.154E+00
  14.675  0.249E+00  0.154E+00
  14.685  0.248E+00  0.154E+00
  14.695  0.247E+00  0.154E+00
  14.705  0.246E+00  0.153E+00
  14.715  0.244E+00  0.152E+00
  14.725  0.242E+00  0.152E+00
  14.735  0.240E+00  0.150E+00
  14.745  0.238E+00  0.149E+00
  14.755  0.234E+00  0.147E+00
  14.765  0.231E+00  0.145E+00
  14.775  0.227E+00  0.143E+00
  14.785  0.222E+00  0.140E+00
  14.795  0.217E+00  0.137E+00
  14.805  0.211E+00  0.134E+00
  14.815  0.204E+00  0.130E+00
  14.825  0.197E+00  0.126E+00
  14.835  0.190E+00  0.121E+00
  14.845  0.182E+00  0.116E+00
  14.855  0.173E+00  0.111E+00
  14.865  0.165E+00  0.105E+00
  14.875  0.155E+00  0.986E-01
  14.885  0.145E+00  0.919E-01
  14.895  0.135E+00  0.849E-01
  14.905  0.124E+00  0.773E-01
  14.915  0.113E+00  0.693E-01
  14.925  0.101E+00  0.608E-01
  14.935  0.886E-01  0.518E-01
  14.945  0.830E-01  0.480E-01
  14.955  0.817E-01  0.473E-01
  14.965  0.804E-01  0.466E-01
  14.975  0.791E-01  0.460E-01
  14.985  0.778E-01  0.453E-01
  14.995  0.765E-01  0.447E-01
  15.005  0.752E-01  0.440E-01
  15.015  0.739E-01  0.433E-01
  15.025  0.727E-01  0.427E-01
  15.035  0.714E-01  0.420E-01
  15.045  0.702E-01  0.414E-01
  15.055  0.690E-01  0.408E-01
  15.065  0.678E-01  0.401E-01
  15.075  0.666E-01  0.395E-01
  15.085  0.654E-01  0.389E-01
  15.095  0.642E-01  0.382E-01
  15.105  0.630E-01  0.376E-01
  15.115  0.619E-01  0.370E-01
  15.125  0.607E-01  0.364E-01
  15.135  0.596E-01  0.358E-01
  15.145  0.585E-01  0.352E-01
  15.155  0.573E-01  0.346E-01
  15.165  0.562E-01  0.340E-01
  15.175  0.551E-01  0.334E-01
  15.185  0.541E-01  0.328E-01
  15.195  0.530E-01  0.322E-01
  15.205  0.519E-01  0.316E-01
  15.215  0.509E-01  0.310E-01
  15.225  0.498E-01  0.304E-01
  15.235  0.488E-01  0.299E-01
  15.245  0.478E-01  0.293E-01
  15.255  0.468E-01  0.287E-01
  15.265  0.458E-01  0.282E-01
  15.275  0.448E-01  0.276E-01
  15.285  0.438E-01  0.271E-01
  15.295  0.428E-01  0.265E-01
  15.305  0.419E-01  0.260E-01
  15.315  0.409E-01  0.255E-01
  15.325  0.400E-01  0.249E-01
  15.335  0.391E-01  0.244E-01
  15.345  0.382E-01  0.239E-01
  15.355  0.373E-01  0.234E-01
  15.365  0.364E-01  0.228E-01
  15.375  0.355E-01  0.223E-01
  15.385  0.346E-01  0.218E-01
  15.395  0.338E-01  0.213E-01
  15.405  0.329E-01  0.208E-01
  15.415  0.321E-01  0.203E-01
  15.425  0.313E-01  0.198E-01
  15.435  0.305E-01  0.194E-01
  15.445  0.297E-01  0.189E-01
  15.455  0.289E-01  0.184E-01
  15.465  0.281E-01  0.180E-01
  15.475  0.273E-01  0.175E-01
  15.485  0.265E-01  0.170E-01
  15.495  0.258E-01  0.166E-01
  15.505  0.251E-01  0.161E-01
  15.515  0.243E-01  0.157E-01
  15.525  0.236E-01  0.153E-01
  15.535  0.229E-01  0.148E-01
  15.545  0.222E-01  0.144E-01
  15.555  0.215E-01  0.140E-01
  15.565  0.208E-01  0.136E-01
  15.575  0.202E-01  0.132E-01
  15.585  0.195E-01  0.128E-01
  15.595  0.189E-01  0.124E-01
  15.605  0.183E-01  0.120E-01
  15.615  0.176E-01  0.116E-01
  15.625  0.170E-01  0.112E-01
  15.635  0.164E-01  0.108E-01
  15.645  0.158E-01  0.105E-01
  15.655  0.153E-01  0.101E-01
  15.665  0.147E-01  0.974E-02
  15.675  0.141E-01  0.939E-02
  15.685  0.136E-01  0.904E-02
  15.695  0.130E-01  0.870E-02
  15.705  0.125E-01  0.836E-02
  15.715  0.120E-01  0.803E-02
  15.725  0.115E-01  0.771E-02
  15.735  0.110E-01  0.739E-02
  15.745  0.105E-01  0.708E-02
  15.755  0.101E-01  0.678E-02
  15.765  0.960E-02  0.648E-02
  15.775  0.915E-02  0.619E-02
  15.785  0.871E-02  0.590E-02
  15.795  0.829E-02  0.562E-02
  15.805  0.787E-02  0.535E-02
  15.815  0.746E-02  0.508E-02
  15.825  0.707E-02  0.482E-02
  15.835  0.668E-02  0.457E-02
  15.845  0.631E-02  0.432E-02
  15.855  0.595E-02  0.408E-02
  15.865  0.559E-02  0.384E-02
  15.875  0.525E-02  0.361E-02
  15.885  0.492E-02  0.339E-02
  15.895  0.460E-02  0.318E-02
  15.905  0.429E-02  0.297E-02
  15.915  0.399E-02  0.277E-02
  15.925  0.371E-02  0.257E-02
  15.935  0.343E-02  0.238E-02
  15.945  0.316E-02  0.220E-02
  15.955  0.291E-02  0.203E-02
  15.965  0.266E-02  0.186E-02
  15.975  0.243E-02  0.170E-02
  15.985  0.221E-02  0.155E-02
  15.995  0.199E-02  0.140E-02
  16.005  0.179E-02  0.126E-02
  16.015  0.160E-02  0.113E-02
  16.025  0.142E-02  0.100E-02
  16.035  0.125E-02  0.884E-03
  16.045  0.109E-02  0.773E-03
  16.055  0.944E-03  0.670E-03
  16.065  0.807E-03  0.573E-03
  16.075  0.681E-03  0.484E-03
  16.085  0.565E-03  0.403E-03
  16.095  0.460E-03  0.329E-03
  16.105  0.366E-03  0.262E-03
  16.115  0.283E-03  0.202E-03
  16.125  0.210E-03  0.151E-03
  16.135  0.148E-03  0.106E-03
  16.145  0.971E-04  0.699E-04
  16.155  0.567E-04  0.409E-04
  16.165  0.272E-04  0.196E-04
  16.175  0.838E-05  0.606E-05
  16.185  0.330E-06  0.240E-06
  16.195  0.000E+00  0.000E+00
