# E (eV)   ldos(E)   pdos(E)    pdos(E)    pdos(E)   
  -5.835  0.000E+00  0.000E+00  0.000E+00  0.000E+00
  -5.825  0.196E-05  0.654E-06  0.654E-06  0.654E-06
  -5.815  0.157E-04  0.523E-05  0.523E-05  0.523E-05
  -5.805  0.530E-04  0.177E-04  0.177E-04  0.177E-04
  -5.795  0.126E-03  0.418E-04  0.418E-04  0.418E-04
  -5.785  0.245E-03  0.817E-04  0.817E-04  0.817E-04
  -5.775  0.424E-03  0.141E-03  0.141E-03  0.141E-03
  -5.765  0.673E-03  0.224E-03  0.224E-03  0.224E-03
  -5.755  0.100E-02  0.335E-03  0.335E-03  0.335E-03
  -5.745  0.143E-02  0.477E-03  0.477E-03  0.477E-03
  -5.735  0.196E-02  0.654E-03  0.654E-03  0.654E-03
  -5.725  0.261E-02  0.870E-03  0.870E-03  0.870E-03
  -5.715  0.339E-02  0.113E-02  0.113E-02  0.113E-02
  -5.705  0.431E-02  0.144E-02  0.144E-02  0.144E-02
  -5.695  0.439E-02  0.146E-02  0.146E-02  0.146E-02
  -5.685  0.440E-02  0.147E-02  0.147E-02  0.147E-02
  -5.675  0.450E-02  0.150E-02  0.150E-02  0.150E-02
  -5.665  0.472E-02  0.157E-02  0.157E-02  0.157E-02
  -5.655  0.507E-02  0.169E-02  0.169E-02  0.169E-02
  -5.645  0.546E-02  0.182E-02  0.182E-02  0.182E-02
  -5.635  0.585E-02  0.195E-02  0.195E-02  0.195E-02
  -5.625  0.626E-02  0.209E-02  0.209E-02  0.209E-02
  -5.615  0.669E-02  0.223E-02  0.223E-02  0.223E-02
  -5.605  0.713E-02  0.238E-02  0.238E-02  0.238E-02
  -5.595  0.759E-02  0.253E-02  0.253E-02  0.253E-02
  -5.585  0.806E-02  0.269E-02  0.269E-02  0.269E-02
  -5.575  0.855E-02  0.285E-02  0.285E-02  0.285E-02
  -5.565  0.905E-02  0.302E-02  0.302E-02  0.302E-02
  -5.555  0.957E-02  0.319E-02  0.319E-02  0.319E-02
  -5.545  0.101E-01  0.337E-02  0.337E-02  0.337E-02
  -5.535  0.107E-01  0.355E-02  0.355E-02  0.355E-02
  -5.525  0.112E-01  0.374E-02  0.374E-02  0.374E-02
  -5.515  0.118E-01  0.394E-02  0.394E-02  0.394E-02
  -5.505  0.124E-01  0.414E-02  0.414E-02  0.414E-02
  -5.495  0.130E-01  0.434E-02  0.434E-02  0.434E-02
  -5.485  0.137E-01  0.456E-02  0.456E-02  0.456E-02
  -5.475  0.143E-01  0.477E-02  0.477E-02  0.477E-02
  -5.465  0.149E-01  0.498E-02  0.498E-02  0.498E-02
  -5.455  0.155E-01  0.518E-02  0.518E-02  0.518E-02
  -5.445  0.161E-01  0.537E-02  0.537E-02  0.537E-02
  -5.435  0.167E-01  0.556E-02  0.556E-02  0.556E-02
  -5.425  0.172E-01  0.574E-02  0.574E-02  0.574E-02
  -5.415  0.177E-01  0.591E-02  0.591E-02  0.591E-02
  -5.405  0.182E-01  0.606E-02  0.606E-02  0.606E-02
  -5.395  0.186E-01  0.621E-02  0.621E-02  0.621E-02
  -5.385  0.190E-01  0.634E-02  0.634E-02  0.634E-02
  -5.375  0.194E-01  0.647E-02  0.647E-02  0.647E-02
  -5.365  0.197E-01  0.657E-02  0.657E-02  0.657E-02
  -5.355  0.200E-01  0.667E-02  0.667E-02  0.667E-02
  -5.345  0.204E-01  0.680E-02  0.680E-02  0.680E-02
  -5.335  0.208E-01  0.693E-02  0.693E-02  0.693E-02
  -5.325  0.212E-01  0.708E-02  0.708E-02  0.708E-02
  -5.315  0.217E-01  0.724E-02  0.724E-02  0.724E-02
  -5.305  0.222E-01  0.740E-02  0.740E-02  0.740E-02
  -5.295  0.227E-01  0.757E-02  0.757E-02  0.757E-02
  -5.285  0.232E-01  0.774E-02  0.774E-02  0.774E-02
  -5.275  0.237E-01  0.791E-02  0.791E-02  0.791E-02
  -5.265  0.242E-01  0.807E-02  0.807E-02  0.807E-02
  -5.255  0.247E-01  0.825E-02  0.825E-02  0.825E-02
  -5.245  0.253E-01  0.842E-02  0.842E-02  0.842E-02
  -5.235  0.258E-01  0.859E-02  0.859E-02  0.859E-02
  -5.225  0.263E-01  0.877E-02  0.877E-02  0.877E-02
  -5.215  0.268E-01  0.894E-02  0.894E-02  0.894E-02
  -5.205  0.274E-01  0.912E-02  0.912E-02  0.912E-02
  -5.195  0.279E-01  0.930E-02  0.930E-02  0.930E-02
  -5.185  0.284E-01  0.948E-02  0.948E-02  0.948E-02
  -5.175  0.290E-01  0.966E-02  0.966E-02  0.966E-02
  -5.165  0.295E-01  0.984E-02  0.984E-02  0.984E-02
  -5.155  0.301E-01  0.100E-01  0.100E-01  0.100E-01
  -5.145  0.306E-01  0.102E-01  0.102E-01  0.102E-01
  -5.135  0.312E-01  0.104E-01  0.104E-01  0.104E-01
  -5.125  0.318E-01  0.106E-01  0.106E-01  0.106E-01
  -5.115  0.323E-01  0.108E-01  0.108E-01  0.108E-01
  -5.105  0.329E-01  0.110E-01  0.110E-01  0.110E-01
  -5.095  0.335E-01  0.112E-01  0.112E-01  0.112E-01
  -5.085  0.341E-01  0.114E-01  0.114E-01  0.114E-01
  -5.075  0.347E-01  0.116E-01  0.116E-01  0.116E-01
  -5.065  0.353E-01  0.118E-01  0.118E-01  0.118E-01
  -5.055  0.359E-01  0.120E-01  0.120E-01  0.120E-01
  -5.045  0.365E-01  0.122E-01  0.122E-01  0.122E-01
  -5.035  0.371E-01  0.124E-01  0.124E-01  0.124E-01
  -5.025  0.377E-01  0.126E-01  0.126E-01  0.126E-01
  -5.015  0.382E-01  0.127E-01  0.127E-01  0.127E-01
  -5.005  0.385E-01  0.128E-01  0.128E-01  0.128E-01
  -4.995  0.389E-01  0.130E-01  0.130E-01  0.130E-01
  -4.985  0.393E-01  0.131E-01  0.131E-01  0.131E-01
  -4.975  0.397E-01  0.132E-01  0.132E-01  0.132E-01
  -4.965  0.402E-01  0.134E-01  0.134E-01  0.134E-01
  -4.955  0.407E-01  0.136E-01  0.136E-01  0.136E-01
  -4.945  0.411E-01  0.137E-01  0.137E-01  0.137E-01
  -4.935  0.416E-01  0.139E-01  0.139E-01  0.139E-01
  -4.925  0.421E-01  0.140E-01  0.140E-01  0.140E-01
  -4.915  0.425E-01  0.142E-01  0.142E-01  0.142E-01
  -4.905  0.430E-01  0.143E-01  0.143E-01  0.143E-01
  -4.895  0.434E-01  0.145E-01  0.145E-01  0.145E-01
  -4.885  0.439E-01  0.146E-01  0.146E-01  0.146E-01
  -4.875  0.444E-01  0.148E-01  0.148E-01  0.148E-01
  -4.865  0.448E-01  0.149E-01  0.149E-01  0.149E-01
  -4.855  0.453E-01  0.151E-01  0.151E-01  0.151E-01
  -4.845  0.457E-01  0.152E-01  0.152E-01  0.152E-01
  -4.835  0.462E-01  0.154E-01  0.154E-01  0.154E-01
  -4.825  0.466E-01  0.155E-01  0.155E-01  0.155E-01
  -4.815  0.471E-01  0.157E-01  0.157E-01  0.157E-01
  -4.805  0.475E-01  0.158E-01  0.158E-01  0.158E-01
  -4.795  0.480E-01  0.160E-01  0.160E-01  0.160E-01
  -4.785  0.484E-01  0.161E-01  0.161E-01  0.161E-01
  -4.775  0.489E-01  0.163E-01  0.163E-01  0.163E-01
  -4.765  0.493E-01  0.164E-01  0.164E-01  0.164E-01
  -4.755  0.498E-01  0.166E-01  0.166E-01  0.166E-01
  -4.745  0.502E-01  0.167E-01  0.167E-01  0.167E-01
  -4.735  0.507E-01  0.169E-01  0.169E-01  0.169E-01
  -4.725  0.512E-01  0.171E-01  0.171E-01  0.171E-01
  -4.715  0.517E-01  0.172E-01  0.172E-01  0.172E-01
  -4.705  0.521E-01  0.174E-01  0.174E-01  0.174E-01
  -4.695  0.526E-01  0.175E-01  0.175E-01  0.175E-01
  -4.685  0.531E-01  0.177E-01  0.177E-01  0.177E-01
  -4.675  0.536E-01  0.179E-01  0.179E-01  0.179E-01
  -4.665  0.541E-01  0.180E-01  0.180E-01  0.180E-01
  -4.655  0.546E-01  0.182E-01  0.182E-01  0.182E-01
  -4.645  0.551E-01  0.184E-01  0.184E-01  0.184E-01
  -4.635  0.556E-01  0.185E-01  0.185E-01  0.185E-01
  -4.625  0.561E-01  0.187E-01  0.187E-01  0.187E-01
  -4.615  0.566E-01  0.189E-01  0.189E-01  0.189E-01
  -4.605  0.571E-01  0.190E-01  0.190E-01  0.190E-01
  -4.595  0.577E-01  0.192E-01  0.192E-01  0.192E-01
  -4.585  0.582E-01  0.194E-01  0.194E-01  0.194E-01
  -4.575  0.587E-01  0.196E-01  0.196E-01  0.196E-01
  -4.565  0.592E-01  0.197E-01  0.197E-01  0.197E-01
  -4.555  0.597E-01  0.199E-01  0.199E-01  0.199E-01
  -4.545  0.603E-01  0.201E-01  0.201E-01  0.201E-01
  -4.535  0.608E-01  0.203E-01  0.203E-01  0.203E-01
  -4.525  0.613E-01  0.204E-01  0.204E-01  0.204E-01
  -4.515  0.618E-01  0.206E-01  0.206E-01  0.206E-01
  -4.505  0.624E-01  0.208E-01  0.208E-01  0.208E-01
  -4.495  0.629E-01  0.210E-01  0.210E-01  0.210E-01
  -4.485  0.634E-01  0.211E-01  0.211E-01  0.211E-01
  -4.475  0.640E-01  0.213E-01  0.213E-01  0.213E-01
  -4.465  0.645E-01  0.215E-01  0.215E-01  0.215E-01
  -4.455  0.650E-01  0.217E-01  0.217E-01  0.217E-01
  -4.445  0.655E-01  0.218E-01  0.218E-01  0.218E-01
  -4.435  0.660E-01  0.220E-01  0.220E-01  0.220E-01
  -4.425  0.664E-01  0.221E-01  0.221E-01  0.221E-01
  -4.415  0.669E-01  0.223E-01  0.223E-01  0.223E-01
  -4.405  0.673E-01  0.224E-01  0.224E-01  0.224E-01
  -4.395  0.677E-01  0.226E-01  0.226E-01  0.226E-01
  -4.385  0.682E-01  0.227E-01  0.227E-01  0.227E-01
  -4.375  0.685E-01  0.228E-01  0.228E-01  0.228E-01
  -4.365  0.689E-01  0.230E-01  0.230E-01  0.230E-01
  -4.355  0.693E-01  0.231E-01  0.231E-01  0.231E-01
  -4.345  0.697E-01  0.232E-01  0.232E-01  0.232E-01
  -4.335  0.702E-01  0.234E-01  0.234E-01  0.234E-01
  -4.325  0.707E-01  0.236E-01  0.236E-01  0.236E-01
  -4.315  0.712E-01  0.237E-01  0.237E-01  0.237E-01
  -4.305  0.716E-01  0.239E-01  0.239E-01  0.239E-01
  -4.295  0.721E-01  0.240E-01  0.240E-01  0.240E-01
  -4.285  0.726E-01  0.242E-01  0.242E-01  0.242E-01
  -4.275  0.731E-01  0.244E-01  0.244E-01  0.244E-01
  -4.265  0.735E-01  0.245E-01  0.245E-01  0.245E-01
  -4.255  0.740E-01  0.247E-01  0.247E-01  0.247E-01
  -4.245  0.745E-01  0.248E-01  0.248E-01  0.248E-01
  -4.235  0.750E-01  0.250E-01  0.250E-01  0.250E-01
  -4.225  0.755E-01  0.252E-01  0.252E-01  0.252E-01
  -4.215  0.760E-01  0.253E-01  0.253E-01  0.253E-01
  -4.205  0.764E-01  0.255E-01  0.255E-01  0.255E-01
  -4.195  0.769E-01  0.256E-01  0.256E-01  0.256E-01
  -4.185  0.774E-01  0.258E-01  0.258E-01  0.258E-01
  -4.175  0.779E-01  0.260E-01  0.260E-01  0.260E-01
  -4.165  0.784E-01  0.261E-01  0.261E-01  0.261E-01
  -4.155  0.789E-01  0.263E-01  0.263E-01  0.263E-01
  -4.145  0.794E-01  0.265E-01  0.265E-01  0.265E-01
  -4.135  0.799E-01  0.266E-01  0.266E-01  0.266E-01
  -4.125  0.804E-01  0.268E-01  0.268E-01  0.268E-01
  -4.115  0.809E-01  0.270E-01  0.270E-01  0.270E-01
  -4.105  0.814E-01  0.271E-01  0.271E-01  0.271E-01
  -4.095  0.819E-01  0.273E-01  0.273E-01  0.273E-01
  -4.085  0.824E-01  0.275E-01  0.275E-01  0.275E-01
  -4.075  0.829E-01  0.276E-01  0.276E-01  0.276E-01
  -4.065  0.834E-01  0.278E-01  0.278E-01  0.278E-01
  -4.055  0.839E-01  0.280E-01  0.280E-01  0.280E-01
  -4.045  0.845E-01  0.282E-01  0.282E-01  0.282E-01
  -4.035  0.850E-01  0.283E-01  0.283E-01  0.283E-01
  -4.025  0.855E-01  0.285E-01  0.285E-01  0.285E-01
  -4.015  0.861E-01  0.287E-01  0.287E-01  0.287E-01
  -4.005  0.866E-01  0.289E-01  0.289E-01  0.289E-01
  -3.995  0.872E-01  0.291E-01  0.291E-01  0.291E-01
  -3.985  0.878E-01  0.293E-01  0.293E-01  0.293E-01
  -3.975  0.884E-01  0.295E-01  0.295E-01  0.295E-01
  -3.965  0.889E-01  0.296E-01  0.296E-01  0.296E-01
  -3.955  0.895E-01  0.298E-01  0.298E-01  0.298E-01
  -3.945  0.901E-01  0.300E-01  0.300E-01  0.300E-01
  -3.935  0.907E-01  0.302E-01  0.302E-01  0.302E-01
  -3.925  0.913E-01  0.304E-01  0.304E-01  0.304E-01
  -3.915  0.919E-01  0.306E-01  0.306E-01  0.306E-01
  -3.905  0.925E-01  0.308E-01  0.308E-01  0.308E-01
  -3.895  0.932E-01  0.311E-01  0.311E-01  0.311E-01
  -3.885  0.938E-01  0.313E-01  0.313E-01  0.313E-01
  -3.875  0.944E-01  0.315E-01  0.315E-01  0.315E-01
  -3.865  0.950E-01  0.317E-01  0.317E-01  0.317E-01
  -3.855  0.956E-01  0.319E-01  0.319E-01  0.319E-01
  -3.845  0.963E-01  0.321E-01  0.321E-01  0.321E-01
  -3.835  0.969E-01  0.323E-01  0.323E-01  0.323E-01
  -3.825  0.976E-01  0.325E-01  0.325E-01  0.325E-01
  -3.815  0.982E-01  0.327E-01  0.327E-01  0.327E-01
  -3.805  0.989E-01  0.330E-01  0.330E-01  0.330E-01
  -3.795  0.995E-01  0.332E-01  0.332E-01  0.332E-01
  -3.785  0.100E+00  0.334E-01  0.334E-01  0.334E-01
  -3.775  0.101E+00  0.336E-01  0.336E-01  0.336E-01
  -3.765  0.102E+00  0.338E-01  0.338E-01  0.338E-01
  -3.755  0.102E+00  0.341E-01  0.341E-01  0.341E-01
  -3.745  0.103E+00  0.343E-01  0.343E-01  0.343E-01
  -3.735  0.104E+00  0.345E-01  0.345E-01  0.345E-01
  -3.725  0.104E+00  0.348E-01  0.348E-01  0.348E-01
  -3.715  0.105E+00  0.350E-01  0.350E-01  0.350E-01
  -3.705  0.106E+00  0.353E-01  0.353E-01  0.353E-01
  -3.695  0.107E+00  0.355E-01  0.355E-01  0.355E-01
  -3.685  0.107E+00  0.358E-01  0.358E-01  0.358E-01
  -3.675  0.108E+00  0.361E-01  0.361E-01  0.361E-01
  -3.665  0.109E+00  0.363E-01  0.363E-01  0.363E-01
  -3.655  0.110E+00  0.366E-01  0.366E-01  0.366E-01
  -3.645  0.111E+00  0.369E-01  0.369E-01  0.369E-01
  -3.635  0.112E+00  0.372E-01  0.372E-01  0.372E-01
  -3.625  0.112E+00  0.375E-01  0.375E-01  0.375E-01
  -3.615  0.113E+00  0.378E-01  0.378E-01  0.378E-01
  -3.605  0.114E+00  0.381E-01  0.381E-01  0.381E-01
  -3.595  0.116E+00  0.386E-01  0.386E-01  0.386E-01
  -3.585  0.118E+00  0.393E-01  0.393E-01  0.393E-01
  -3.575  0.120E+00  0.400E-01  0.400E-01  0.400E-01
  -3.565  0.122E+00  0.408E-01  0.408E-01  0.408E-01
  -3.555  0.125E+00  0.417E-01  0.417E-01  0.417E-01
  -3.545  0.128E+00  0.427E-01  0.427E-01  0.427E-01
  -3.535  0.131E+00  0.438E-01  0.438E-01  0.438E-01
  -3.525  0.135E+00  0.450E-01  0.450E-01  0.450E-01
  -3.515  0.139E+00  0.462E-01  0.462E-01  0.462E-01
  -3.505  0.143E+00  0.476E-01  0.476E-01  0.476E-01
  -3.495  0.147E+00  0.490E-01  0.490E-01  0.490E-01
  -3.485  0.151E+00  0.504E-01  0.504E-01  0.504E-01
  -3.475  0.153E+00  0.509E-01  0.509E-01  0.509E-01
  -3.465  0.152E+00  0.506E-01  0.506E-01  0.506E-01
  -3.455  0.148E+00  0.493E-01  0.493E-01  0.493E-01
  -3.445  0.141E+00  0.470E-01  0.470E-01  0.470E-01
  -3.435  0.133E+00  0.444E-01  0.444E-01  0.444E-01
  -3.425  0.133E+00  0.444E-01  0.444E-01  0.444E-01
  -3.415  0.133E+00  0.444E-01  0.444E-01  0.444E-01
  -3.405  0.133E+00  0.444E-01  0.444E-01  0.444E-01
  -3.395  0.133E+00  0.444E-01  0.444E-01  0.444E-01
  -3.385  0.133E+00  0.445E-01  0.445E-01  0.445E-01
  -3.375  0.133E+00  0.445E-01  0.445E-01  0.445E-01
  -3.365  0.133E+00  0.445E-01  0.445E-01  0.445E-01
  -3.355  0.133E+00  0.445E-01  0.445E-01  0.445E-01
  -3.345  0.134E+00  0.445E-01  0.445E-01  0.445E-01
  -3.335  0.134E+00  0.445E-01  0.445E-01  0.445E-01
  -3.325  0.134E+00  0.446E-01  0.446E-01  0.446E-01
  -3.315  0.134E+00  0.446E-01  0.446E-01  0.446E-01
  -3.305  0.134E+00  0.446E-01  0.446E-01  0.446E-01
  -3.295  0.134E+00  0.446E-01  0.446E-01  0.446E-01
  -3.285  0.134E+00  0.447E-01  0.447E-01  0.447E-01
  -3.275  0.134E+00  0.447E-01  0.447E-01  0.447E-01
  -3.265  0.134E+00  0.448E-01  0.448E-01  0.448E-01
  -3.255  0.134E+00  0.448E-01  0.448E-01  0.448E-01
  -3.245  0.135E+00  0.448E-01  0.448E-01  0.448E-01
  -3.235  0.134E+00  0.448E-01  0.448E-01  0.448E-01
  -3.225  0.134E+00  0.447E-01  0.447E-01  0.447E-01
  -3.215  0.134E+00  0.446E-01  0.446E-01  0.446E-01
  -3.205  0.133E+00  0.444E-01  0.444E-01  0.444E-01
  -3.195  0.132E+00  0.441E-01  0.441E-01  0.441E-01
  -3.185  0.132E+00  0.439E-01  0.439E-01  0.439E-01
  -3.175  0.131E+00  0.435E-01  0.435E-01  0.435E-01
  -3.165  0.129E+00  0.431E-01  0.431E-01  0.431E-01
  -3.155  0.128E+00  0.427E-01  0.427E-01  0.427E-01
  -3.145  0.127E+00  0.422E-01  0.422E-01  0.422E-01
  -3.135  0.125E+00  0.417E-01  0.417E-01  0.417E-01
  -3.125  0.124E+00  0.414E-01  0.414E-01  0.414E-01
  -3.115  0.124E+00  0.413E-01  0.413E-01  0.413E-01
  -3.105  0.124E+00  0.413E-01  0.413E-01  0.413E-01
  -3.095  0.124E+00  0.414E-01  0.414E-01  0.414E-01
  -3.085  0.125E+00  0.416E-01  0.416E-01  0.416E-01
  -3.075  0.125E+00  0.417E-01  0.417E-01  0.417E-01
  -3.065  0.126E+00  0.419E-01  0.419E-01  0.419E-01
  -3.055  0.126E+00  0.420E-01  0.420E-01  0.420E-01
  -3.045  0.126E+00  0.422E-01  0.422E-01  0.422E-01
  -3.035  0.127E+00  0.423E-01  0.423E-01  0.423E-01
  -3.025  0.127E+00  0.424E-01  0.424E-01  0.424E-01
  -3.015  0.128E+00  0.425E-01  0.425E-01  0.425E-01
  -3.005  0.128E+00  0.426E-01  0.426E-01  0.426E-01
  -2.995  0.128E+00  0.427E-01  0.427E-01  0.427E-01
  -2.985  0.128E+00  0.427E-01  0.427E-01  0.427E-01
  -2.975  0.128E+00  0.427E-01  0.427E-01  0.427E-01
  -2.965  0.128E+00  0.427E-01  0.427E-01  0.427E-01
  -2.955  0.128E+00  0.426E-01  0.426E-01  0.426E-01
  -2.945  0.127E+00  0.425E-01  0.425E-01  0.425E-01
  -2.935  0.127E+00  0.423E-01  0.423E-01  0.423E-01
  -2.925  0.127E+00  0.422E-01  0.422E-01  0.422E-01
  -2.915  0.126E+00  0.421E-01  0.421E-01  0.421E-01
  -2.905  0.126E+00  0.419E-01  0.419E-01  0.419E-01
  -2.895  0.125E+00  0.417E-01  0.417E-01  0.417E-01
  -2.885  0.125E+00  0.416E-01  0.416E-01  0.416E-01
  -2.875  0.124E+00  0.414E-01  0.414E-01  0.414E-01
  -2.865  0.124E+00  0.412E-01  0.412E-01  0.412E-01
  -2.855  0.123E+00  0.410E-01  0.410E-01  0.410E-01
  -2.845  0.122E+00  0.407E-01  0.407E-01  0.407E-01
  -2.835  0.121E+00  0.405E-01  0.405E-01  0.405E-01
  -2.825  0.121E+00  0.402E-01  0.402E-01  0.402E-01
  -2.815  0.120E+00  0.400E-01  0.400E-01  0.400E-01
  -2.805  0.119E+00  0.397E-01  0.397E-01  0.397E-01
  -2.795  0.118E+00  0.394E-01  0.394E-01  0.394E-01
  -2.785  0.117E+00  0.391E-01  0.391E-01  0.391E-01
  -2.775  0.116E+00  0.388E-01  0.388E-01  0.388E-01
  -2.765  0.115E+00  0.384E-01  0.384E-01  0.384E-01
  -2.755  0.114E+00  0.381E-01  0.381E-01  0.381E-01
  -2.745  0.114E+00  0.379E-01  0.379E-01  0.379E-01
  -2.735  0.113E+00  0.378E-01  0.378E-01  0.378E-01
  -2.725  0.113E+00  0.376E-01  0.376E-01  0.376E-01
  -2.715  0.112E+00  0.375E-01  0.375E-01  0.375E-01
  -2.705  0.112E+00  0.374E-01  0.374E-01  0.374E-01
  -2.695  0.112E+00  0.372E-01  0.372E-01  0.372E-01
  -2.685  0.111E+00  0.371E-01  0.371E-01  0.371E-01
  -2.675  0.111E+00  0.369E-01  0.369E-01  0.369E-01
  -2.665  0.110E+00  0.368E-01  0.368E-01  0.368E-01
  -2.655  0.110E+00  0.367E-01  0.367E-01  0.367E-01
  -2.645  0.110E+00  0.365E-01  0.365E-01  0.365E-01
  -2.635  0.109E+00  0.364E-01  0.364E-01  0.364E-01
  -2.625  0.109E+00  0.363E-01  0.363E-01  0.363E-01
  -2.615  0.108E+00  0.361E-01  0.361E-01  0.361E-01
  -2.605  0.108E+00  0.360E-01  0.360E-01  0.360E-01
  -2.595  0.108E+00  0.359E-01  0.359E-01  0.359E-01
  -2.585  0.107E+00  0.358E-01  0.358E-01  0.358E-01
  -2.575  0.107E+00  0.357E-01  0.357E-01  0.357E-01
  -2.565  0.107E+00  0.356E-01  0.356E-01  0.356E-01
  -2.555  0.106E+00  0.354E-01  0.354E-01  0.354E-01
  -2.545  0.106E+00  0.353E-01  0.353E-01  0.353E-01
  -2.535  0.106E+00  0.352E-01  0.352E-01  0.352E-01
  -2.525  0.105E+00  0.351E-01  0.351E-01  0.351E-01
  -2.515  0.105E+00  0.350E-01  0.350E-01  0.350E-01
  -2.505  0.105E+00  0.349E-01  0.349E-01  0.349E-01
  -2.495  0.105E+00  0.348E-01  0.348E-01  0.348E-01
  -2.485  0.104E+00  0.347E-01  0.347E-01  0.347E-01
  -2.475  0.104E+00  0.346E-01  0.346E-01  0.346E-01
  -2.465  0.104E+00  0.345E-01  0.345E-01  0.345E-01
  -2.455  0.103E+00  0.344E-01  0.344E-01  0.344E-01
  -2.445  0.103E+00  0.343E-01  0.343E-01  0.343E-01
  -2.435  0.102E+00  0.341E-01  0.341E-01  0.341E-01
  -2.425  0.102E+00  0.340E-01  0.340E-01  0.340E-01
  -2.415  0.102E+00  0.338E-01  0.338E-01  0.338E-01
  -2.405  0.101E+00  0.337E-01  0.337E-01  0.337E-01
  -2.395  0.101E+00  0.335E-01  0.335E-01  0.335E-01
  -2.385  0.100E+00  0.334E-01  0.334E-01  0.334E-01
  -2.375  0.100E+00  0.334E-01  0.334E-01  0.334E-01
  -2.365  0.999E-01  0.333E-01  0.333E-01  0.333E-01
  -2.355  0.998E-01  0.333E-01  0.333E-01  0.333E-01
  -2.345  0.996E-01  0.332E-01  0.332E-01  0.332E-01
  -2.335  0.993E-01  0.331E-01  0.331E-01  0.331E-01
  -2.325  0.990E-01  0.330E-01  0.330E-01  0.330E-01
  -2.315  0.986E-01  0.329E-01  0.329E-01  0.329E-01
  -2.305  0.982E-01  0.327E-01  0.327E-01  0.327E-01
  -2.295  0.978E-01  0.326E-01  0.326E-01  0.326E-01
  -2.285  0.973E-01  0.324E-01  0.324E-01  0.324E-01
  -2.275  0.967E-01  0.322E-01  0.322E-01  0.322E-01
  -2.265  0.961E-01  0.320E-01  0.320E-01  0.320E-01
  -2.255  0.110E+00  0.368E-01  0.368E-01  0.368E-01
  -2.245  0.111E+00  0.371E-01  0.371E-01  0.371E-01
  -2.235  0.109E+00  0.362E-01  0.362E-01  0.362E-01
  -2.225  0.106E+00  0.354E-01  0.354E-01  0.354E-01
  -2.215  0.104E+00  0.345E-01  0.345E-01  0.345E-01
  -2.205  0.101E+00  0.337E-01  0.337E-01  0.337E-01
  -2.195  0.987E-01  0.329E-01  0.329E-01  0.329E-01
  -2.185  0.963E-01  0.321E-01  0.321E-01  0.321E-01
  -2.175  0.939E-01  0.313E-01  0.313E-01  0.313E-01
  -2.165  0.917E-01  0.306E-01  0.306E-01  0.306E-01
  -2.155  0.895E-01  0.298E-01  0.298E-01  0.298E-01
  -2.145  0.875E-01  0.292E-01  0.292E-01  0.292E-01
  -2.135  0.856E-01  0.285E-01  0.285E-01  0.285E-01
  -2.125  0.836E-01  0.279E-01  0.279E-01  0.279E-01
  -2.115  0.816E-01  0.272E-01  0.272E-01  0.272E-01
  -2.105  0.797E-01  0.266E-01  0.266E-01  0.266E-01
  -2.095  0.778E-01  0.259E-01  0.259E-01  0.259E-01
  -2.085  0.759E-01  0.253E-01  0.253E-01  0.253E-01
  -2.075  0.740E-01  0.247E-01  0.247E-01  0.247E-01
  -2.065  0.721E-01  0.240E-01  0.240E-01  0.240E-01
  -2.055  0.702E-01  0.234E-01  0.234E-01  0.234E-01
  -2.045  0.683E-01  0.228E-01  0.228E-01  0.228E-01
  -2.035  0.664E-01  0.221E-01  0.221E-01  0.221E-01
  -2.025  0.646E-01  0.215E-01  0.215E-01  0.215E-01
  -2.015  0.627E-01  0.209E-01  0.209E-01  0.209E-01
  -2.005  0.609E-01  0.203E-01  0.203E-01  0.203E-01
  -1.995  0.591E-01  0.197E-01  0.197E-01  0.197E-01
  -1.985  0.573E-01  0.191E-01  0.191E-01  0.191E-01
  -1.975  0.555E-01  0.185E-01  0.185E-01  0.185E-01
  -1.965  0.537E-01  0.179E-01  0.179E-01  0.179E-01
  -1.955  0.519E-01  0.173E-01  0.173E-01  0.173E-01
  -1.945  0.502E-01  0.167E-01  0.167E-01  0.167E-01
  -1.935  0.484E-01  0.161E-01  0.161E-01  0.161E-01
  -1.925  0.467E-01  0.156E-01  0.156E-01  0.156E-01
  -1.915  0.449E-01  0.150E-01  0.150E-01  0.150E-01
  -1.905  0.432E-01  0.144E-01  0.144E-01  0.144E-01
  -1.895  0.415E-01  0.138E-01  0.138E-01  0.138E-01
  -1.885  0.398E-01  0.133E-01  0.133E-01  0.133E-01
  -1.875  0.382E-01  0.127E-01  0.127E-01  0.127E-01
  -1.865  0.365E-01  0.122E-01  0.122E-01  0.122E-01
  -1.855  0.349E-01  0.116E-01  0.116E-01  0.116E-01
  -1.845  0.333E-01  0.111E-01  0.111E-01  0.111E-01
  -1.835  0.317E-01  0.106E-01  0.106E-01  0.106E-01
  -1.825  0.301E-01  0.100E-01  0.100E-01  0.100E-01
  -1.815  0.286E-01  0.953E-02  0.953E-02  0.953E-02
  -1.805  0.271E-01  0.902E-02  0.902E-02  0.902E-02
  -1.795  0.256E-01  0.852E-02  0.852E-02  0.852E-02
  -1.785  0.241E-01  0.802E-02  0.802E-02  0.802E-02
  -1.775  0.226E-01  0.754E-02  0.754E-02  0.754E-02
  -1.765  0.212E-01  0.705E-02  0.705E-02  0.705E-02
  -1.755  0.197E-01  0.658E-02  0.658E-02  0.658E-02
  -1.745  0.183E-01  0.611E-02  0.611E-02  0.611E-02
  -1.735  0.170E-01  0.565E-02  0.565E-02  0.565E-02
  -1.725  0.156E-01  0.520E-02  0.520E-02  0.520E-02
  -1.715  0.143E-01  0.475E-02  0.475E-02  0.475E-02
  -1.705  0.130E-01  0.432E-02  0.432E-02  0.432E-02
  -1.695  0.117E-01  0.389E-02  0.389E-02  0.389E-02
  -1.685  0.104E-01  0.346E-02  0.346E-02  0.346E-02
  -1.675  0.919E-02  0.306E-02  0.306E-02  0.306E-02
  -1.665  0.820E-02  0.273E-02  0.273E-02  0.273E-02
  -1.655  0.742E-02  0.247E-02  0.247E-02  0.247E-02
  -1.645  0.685E-02  0.228E-02  0.228E-02  0.228E-02
  -1.635  0.649E-02  0.216E-02  0.216E-02  0.216E-02
  -1.625  0.634E-02  0.211E-02  0.211E-02  0.211E-02
  -1.615  0.637E-02  0.212E-02  0.212E-02  0.212E-02
  -1.605  0.655E-02  0.218E-02  0.218E-02  0.218E-02
  -1.595  0.689E-02  0.230E-02  0.230E-02  0.230E-02
  -1.585  0.737E-02  0.246E-02  0.246E-02  0.246E-02
  -1.575  0.801E-02  0.267E-02  0.267E-02  0.267E-02
  -1.565  0.879E-02  0.293E-02  0.293E-02  0.293E-02
  -1.555  0.972E-02  0.324E-02  0.324E-02  0.324E-02
  -1.545  0.108E-01  0.359E-02  0.359E-02  0.359E-02
  -1.535  0.120E-01  0.399E-02  0.399E-02  0.399E-02
  -1.525  0.136E-01  0.454E-02  0.454E-02  0.454E-02
  -1.515  0.156E-01  0.520E-02  0.520E-02  0.520E-02
  -1.505  0.176E-01  0.587E-02  0.587E-02  0.587E-02
  -1.495  0.197E-01  0.656E-02  0.656E-02  0.656E-02
  -1.485  0.218E-01  0.725E-02  0.725E-02  0.725E-02
  -1.475  0.239E-01  0.796E-02  0.796E-02  0.796E-02
  -1.465  0.260E-01  0.867E-02  0.867E-02  0.867E-02
  -1.455  0.282E-01  0.940E-02  0.940E-02  0.940E-02
  -1.445  0.304E-01  0.101E-01  0.101E-01  0.101E-01
  -1.435  0.327E-01  0.109E-01  0.109E-01  0.109E-01
  -1.425  0.350E-01  0.117E-01  0.117E-01  0.117E-01
  -1.415  0.373E-01  0.124E-01  0.124E-01  0.124E-01
  -1.405  0.396E-01  0.132E-01  0.132E-01  0.132E-01
  -1.395  0.420E-01  0.140E-01  0.140E-01  0.140E-01
  -1.385  0.445E-01  0.148E-01  0.148E-01  0.148E-01
  -1.375  0.469E-01  0.156E-01  0.156E-01  0.156E-01
  -1.365  0.494E-01  0.165E-01  0.165E-01  0.165E-01
  -1.355  0.519E-01  0.173E-01  0.173E-01  0.173E-01
  -1.345  0.545E-01  0.182E-01  0.182E-01  0.182E-01
  -1.335  0.571E-01  0.190E-01  0.190E-01  0.190E-01
  -1.325  0.597E-01  0.199E-01  0.199E-01  0.199E-01
  -1.315  0.624E-01  0.208E-01  0.208E-01  0.208E-01
  -1.305  0.651E-01  0.217E-01  0.217E-01  0.217E-01
  -1.295  0.678E-01  0.226E-01  0.226E-01  0.226E-01
  -1.285  0.705E-01  0.235E-01  0.235E-01  0.235E-01
  -1.275  0.733E-01  0.244E-01  0.244E-01  0.244E-01
  -1.265  0.761E-01  0.254E-01  0.254E-01  0.254E-01
  -1.255  0.788E-01  0.263E-01  0.263E-01  0.263E-01
  -1.245  0.817E-01  0.272E-01  0.272E-01  0.272E-01
  -1.235  0.845E-01  0.282E-01  0.282E-01  0.282E-01
  -1.225  0.873E-01  0.291E-01  0.291E-01  0.291E-01
  -1.215  0.902E-01  0.301E-01  0.301E-01  0.301E-01
  -1.205  0.930E-01  0.310E-01  0.310E-01  0.310E-01
  -1.195  0.959E-01  0.320E-01  0.320E-01  0.320E-01
  -1.185  0.988E-01  0.329E-01  0.329E-01  0.329E-01
  -1.175  0.102E+00  0.339E-01  0.339E-01  0.339E-01
  -1.165  0.105E+00  0.349E-01  0.349E-01  0.349E-01
  -1.155  0.108E+00  0.358E-01  0.358E-01  0.358E-01
  -1.145  0.110E+00  0.368E-01  0.368E-01  0.368E-01
  -1.135  0.113E+00  0.378E-01  0.378E-01  0.378E-01
  -1.125  0.116E+00  0.388E-01  0.388E-01  0.388E-01
  -1.115  0.119E+00  0.398E-01  0.398E-01  0.398E-01
  -1.105  0.122E+00  0.407E-01  0.407E-01  0.407E-01
  -1.095  0.125E+00  0.417E-01  0.417E-01  0.417E-01
  -1.085  0.128E+00  0.427E-01  0.427E-01  0.427E-01
  -1.075  0.131E+00  0.437E-01  0.437E-01  0.437E-01
  -1.065  0.134E+00  0.447E-01  0.447E-01  0.447E-01
  -1.055  0.137E+00  0.457E-01  0.457E-01  0.457E-01
  -1.045  0.140E+00  0.466E-01  0.466E-01  0.466E-01
  -1.035  0.143E+00  0.476E-01  0.476E-01  0.476E-01
  -1.025  0.146E+00  0.486E-01  0.486E-01  0.486E-01
  -1.015  0.149E+00  0.496E-01  0.496E-01  0.496E-01
  -1.005  0.152E+00  0.506E-01  0.506E-01  0.506E-01
  -0.995  0.155E+00  0.516E-01  0.516E-01  0.516E-01
  -0.985  0.158E+00  0.525E-01  0.525E-01  0.525E-01
  -0.975  0.161E+00  0.535E-01  0.535E-01  0.535E-01
  -0.965  0.163E+00  0.545E-01  0.545E-01  0.545E-01
  -0.955  0.166E+00  0.555E-01  0.555E-01  0.555E-01
  -0.945  0.169E+00  0.564E-01  0.564E-01  0.564E-01
  -0.935  0.172E+00  0.574E-01  0.574E-01  0.574E-01
  -0.925  0.176E+00  0.587E-01  0.587E-01  0.587E-01
  -0.915  0.182E+00  0.608E-01  0.608E-01  0.608E-01
  -0.905  0.191E+00  0.638E-01  0.638E-01  0.638E-01
  -0.895  0.190E+00  0.634E-01  0.634E-01  0.634E-01
  -0.885  0.185E+00  0.616E-01  0.616E-01  0.616E-01
  -0.875  0.186E+00  0.622E-01  0.622E-01  0.622E-01
  -0.865  0.191E+00  0.636E-01  0.636E-01  0.636E-01
  -0.855  0.195E+00  0.649E-01  0.649E-01  0.649E-01
  -0.845  0.199E+00  0.663E-01  0.663E-01  0.663E-01
  -0.835  0.203E+00  0.675E-01  0.675E-01  0.675E-01
  -0.825  0.206E+00  0.688E-01  0.688E-01  0.688E-01
  -0.815  0.210E+00  0.701E-01  0.701E-01  0.701E-01
  -0.805  0.214E+00  0.713E-01  0.713E-01  0.713E-01
  -0.795  0.217E+00  0.724E-01  0.724E-01  0.724E-01
  -0.785  0.221E+00  0.736E-01  0.736E-01  0.736E-01
  -0.775  0.224E+00  0.747E-01  0.747E-01  0.747E-01
  -0.765  0.228E+00  0.760E-01  0.760E-01  0.760E-01
  -0.755  0.233E+00  0.776E-01  0.776E-01  0.776E-01
  -0.745  0.239E+00  0.795E-01  0.795E-01  0.795E-01
  -0.735  0.245E+00  0.817E-01  0.817E-01  0.817E-01
  -0.725  0.253E+00  0.842E-01  0.842E-01  0.842E-01
  -0.715  0.261E+00  0.870E-01  0.870E-01  0.870E-01
  -0.705  0.329E+00  0.110E+00  0.110E+00  0.110E+00
  -0.695  0.345E+00  0.115E+00  0.115E+00  0.115E+00
  -0.685  0.362E+00  0.121E+00  0.121E+00  0.121E+00
  -0.675  0.380E+00  0.127E+00  0.127E+00  0.127E+00
  -0.665  0.400E+00  0.133E+00  0.133E+00  0.133E+00
  -0.655  0.421E+00  0.140E+00  0.140E+00  0.140E+00
  -0.645  0.443E+00  0.148E+00  0.148E+00  0.148E+00
  -0.635  0.467E+00  0.156E+00  0.156E+00  0.156E+00
  -0.625  0.492E+00  0.164E+00  0.164E+00  0.164E+00
  -0.615  0.518E+00  0.173E+00  0.173E+00  0.173E+00
  -0.605  0.538E+00  0.179E+00  0.179E+00  0.179E+00
  -0.595  0.539E+00  0.180E+00  0.180E+00  0.180E+00
  -0.585  0.526E+00  0.175E+00  0.175E+00  0.175E+00
  -0.575  0.506E+00  0.169E+00  0.169E+00  0.169E+00
  -0.565  0.487E+00  0.162E+00  0.162E+00  0.162E+00
  -0.555  0.468E+00  0.156E+00  0.156E+00  0.156E+00
  -0.545  0.451E+00  0.150E+00  0.150E+00  0.150E+00
  -0.535  0.434E+00  0.145E+00  0.145E+00  0.145E+00
  -0.525  0.418E+00  0.139E+00  0.139E+00  0.139E+00
  -0.515  0.404E+00  0.135E+00  0.135E+00  0.135E+00
  -0.505  0.390E+00  0.130E+00  0.130E+00  0.130E+00
  -0.495  0.376E+00  0.125E+00  0.125E+00  0.125E+00
  -0.485  0.364E+00  0.121E+00  0.121E+00  0.121E+00
  -0.475  0.353E+00  0.118E+00  0.118E+00  0.118E+00
  -0.465  0.342E+00  0.114E+00  0.114E+00  0.114E+00
  -0.455  0.332E+00  0.111E+00  0.111E+00  0.111E+00
  -0.445  0.323E+00  0.108E+00  0.108E+00  0.108E+00
  -0.435  0.314E+00  0.105E+00  0.105E+00  0.105E+00
  -0.425  0.306E+00  0.102E+00  0.102E+00  0.102E+00
  -0.415  0.298E+00  0.994E-01  0.994E-01  0.994E-01
  -0.405  0.291E+00  0.969E-01  0.969E-01  0.969E-01
  -0.395  0.284E+00  0.946E-01  0.946E-01  0.946E-01
  -0.385  0.277E+00  0.925E-01  0.925E-01  0.925E-01
  -0.375  0.271E+00  0.905E-01  0.905E-01  0.905E-01
  -0.365  0.266E+00  0.886E-01  0.886E-01  0.886E-01
  -0.355  0.261E+00  0.869E-01  0.869E-01  0.869E-01
  -0.345  0.256E+00  0.853E-01  0.853E-01  0.853E-01
  -0.335  0.252E+00  0.840E-01  0.840E-01  0.840E-01
  -0.325  0.248E+00  0.828E-01  0.828E-01  0.828E-01
  -0.315  0.245E+00  0.816E-01  0.816E-01  0.816E-01
  -0.305  0.241E+00  0.805E-01  0.805E-01  0.805E-01
  -0.295  0.238E+00  0.795E-01  0.795E-01  0.795E-01
  -0.285  0.236E+00  0.785E-01  0.785E-01  0.785E-01
  -0.275  0.233E+00  0.776E-01  0.776E-01  0.776E-01
  -0.265  0.230E+00  0.767E-01  0.767E-01  0.767E-01
  -0.255  0.228E+00  0.758E-01  0.758E-01  0.758E-01
  -0.245  0.225E+00  0.750E-01  0.750E-01  0.750E-01
  -0.235  0.223E+00  0.742E-01  0.742E-01  0.742E-01
  -0.225  0.220E+00  0.735E-01  0.735E-01  0.735E-01
  -0.215  0.218E+00  0.728E-01  0.728E-01  0.728E-01
  -0.205  0.216E+00  0.721E-01  0.721E-01  0.721E-01
  -0.195  0.214E+00  0.715E-01  0.715E-01  0.715E-01
  -0.185  0.213E+00  0.708E-01  0.708E-01  0.708E-01
  -0.175  0.211E+00  0.703E-01  0.703E-01  0.703E-01
  -0.165  0.209E+00  0.697E-01  0.697E-01  0.697E-01
  -0.155  0.207E+00  0.691E-01  0.691E-01  0.691E-01
  -0.145  0.206E+00  0.686E-01  0.686E-01  0.686E-01
  -0.135  0.204E+00  0.680E-01  0.680E-01  0.680E-01
  -0.125  0.203E+00  0.675E-01  0.675E-01  0.675E-01
  -0.115  0.201E+00  0.670E-01  0.670E-01  0.670E-01
  -0.105  0.199E+00  0.665E-01  0.665E-01  0.665E-01
  -0.095  0.198E+00  0.659E-01  0.659E-01  0.659E-01
  -0.085  0.196E+00  0.654E-01  0.654E-01  0.654E-01
  -0.075  0.195E+00  0.649E-01  0.649E-01  0.649E-01
  -0.065  0.193E+00  0.645E-01  0.645E-01  0.645E-01
  -0.055  0.192E+00  0.640E-01  0.640E-01  0.640E-01
  -0.045  0.191E+00  0.635E-01  0.635E-01  0.635E-01
  -0.035  0.189E+00  0.631E-01  0.631E-01  0.631E-01
  -0.025  0.188E+00  0.626E-01  0.626E-01  0.626E-01
  -0.015  0.186E+00  0.622E-01  0.622E-01  0.622E-01
  -0.005  0.185E+00  0.617E-01  0.617E-01  0.617E-01
   0.005  0.184E+00  0.613E-01  0.613E-01  0.613E-01
   0.015  0.182E+00  0.608E-01  0.608E-01  0.608E-01
   0.025  0.181E+00  0.604E-01  0.604E-01  0.604E-01
   0.035  0.180E+00  0.600E-01  0.600E-01  0.600E-01
   0.045  0.179E+00  0.595E-01  0.595E-01  0.595E-01
   0.055  0.177E+00  0.591E-01  0.591E-01  0.591E-01
   0.065  0.176E+00  0.586E-01  0.586E-01  0.586E-01
   0.075  0.175E+00  0.582E-01  0.582E-01  0.582E-01
   0.085  0.173E+00  0.578E-01  0.578E-01  0.578E-01
   0.095  0.172E+00  0.574E-01  0.574E-01  0.574E-01
   0.105  0.171E+00  0.569E-01  0.569E-01  0.569E-01
   0.115  0.170E+00  0.565E-01  0.565E-01  0.565E-01
   0.125  0.168E+00  0.561E-01  0.561E-01  0.561E-01
   0.135  0.167E+00  0.557E-01  0.557E-01  0.557E-01
   0.145  0.166E+00  0.553E-01  0.553E-01  0.553E-01
   0.155  0.165E+00  0.548E-01  0.548E-01  0.548E-01
   0.165  0.163E+00  0.544E-01  0.544E-01  0.544E-01
   0.175  0.162E+00  0.540E-01  0.540E-01  0.540E-01
   0.185  0.161E+00  0.536E-01  0.536E-01  0.536E-01
   0.195  0.160E+00  0.532E-01  0.532E-01  0.532E-01
   0.205  0.158E+00  0.528E-01  0.528E-01  0.528E-01
   0.215  0.157E+00  0.524E-01  0.524E-01  0.524E-01
   0.225  0.156E+00  0.520E-01  0.520E-01  0.520E-01
   0.235  0.155E+00  0.516E-01  0.516E-01  0.516E-01
   0.245  0.154E+00  0.512E-01  0.512E-01  0.512E-01
   0.255  0.153E+00  0.509E-01  0.509E-01  0.509E-01
   0.265  0.151E+00  0.505E-01  0.505E-01  0.505E-01
   0.275  0.150E+00  0.501E-01  0.501E-01  0.501E-01
   0.285  0.149E+00  0.497E-01  0.497E-01  0.497E-01
   0.295  0.148E+00  0.494E-01  0.494E-01  0.494E-01
   0.305  0.147E+00  0.490E-01  0.490E-01  0.490E-01
   0.315  0.146E+00  0.486E-01  0.486E-01  0.486E-01
   0.325  0.145E+00  0.483E-01  0.483E-01  0.483E-01
   0.335  0.144E+00  0.480E-01  0.480E-01  0.480E-01
   0.345  0.143E+00  0.476E-01  0.476E-01  0.476E-01
   0.355  0.142E+00  0.473E-01  0.473E-01  0.473E-01
   0.365  0.141E+00  0.470E-01  0.470E-01  0.470E-01
   0.375  0.140E+00  0.467E-01  0.467E-01  0.467E-01
   0.385  0.139E+00  0.464E-01  0.464E-01  0.464E-01
   0.395  0.138E+00  0.461E-01  0.461E-01  0.461E-01
   0.405  0.137E+00  0.458E-01  0.458E-01  0.458E-01
   0.415  0.136E+00  0.454E-01  0.454E-01  0.454E-01
   0.425  0.135E+00  0.449E-01  0.449E-01  0.449E-01
   0.435  0.134E+00  0.445E-01  0.445E-01  0.445E-01
   0.445  0.132E+00  0.441E-01  0.441E-01  0.441E-01
   0.455  0.131E+00  0.437E-01  0.437E-01  0.437E-01
   0.465  0.130E+00  0.433E-01  0.433E-01  0.433E-01
   0.475  0.129E+00  0.430E-01  0.430E-01  0.430E-01
   0.485  0.128E+00  0.426E-01  0.426E-01  0.426E-01
   0.495  0.127E+00  0.423E-01  0.423E-01  0.423E-01
   0.505  0.126E+00  0.420E-01  0.420E-01  0.420E-01
   0.515  0.125E+00  0.417E-01  0.417E-01  0.417E-01
   0.525  0.124E+00  0.414E-01  0.414E-01  0.414E-01
   0.535  0.124E+00  0.412E-01  0.412E-01  0.412E-01
   0.545  0.123E+00  0.409E-01  0.409E-01  0.409E-01
   0.555  0.122E+00  0.407E-01  0.407E-01  0.407E-01
   0.565  0.121E+00  0.405E-01  0.405E-01  0.405E-01
   0.575  0.121E+00  0.403E-01  0.403E-01  0.403E-01
   0.585  0.120E+00  0.401E-01  0.401E-01  0.401E-01
   0.595  0.120E+00  0.399E-01  0.399E-01  0.399E-01
   0.605  0.119E+00  0.398E-01  0.398E-01  0.398E-01
   0.615  0.119E+00  0.396E-01  0.396E-01  0.396E-01
   0.625  0.118E+00  0.395E-01  0.395E-01  0.395E-01
   0.635  0.118E+00  0.393E-01  0.393E-01  0.393E-01
   0.645  0.118E+00  0.392E-01  0.392E-01  0.392E-01
   0.655  0.117E+00  0.390E-01  0.390E-01  0.390E-01
   0.665  0.117E+00  0.389E-01  0.389E-01  0.389E-01
   0.675  0.116E+00  0.387E-01  0.387E-01  0.387E-01
   0.685  0.116E+00  0.386E-01  0.386E-01  0.386E-01
   0.695  0.115E+00  0.384E-01  0.384E-01  0.384E-01
   0.705  0.115E+00  0.383E-01  0.383E-01  0.383E-01
   0.715  0.114E+00  0.382E-01  0.382E-01  0.382E-01
   0.725  0.114E+00  0.380E-01  0.380E-01  0.380E-01
   0.735  0.114E+00  0.379E-01  0.379E-01  0.379E-01
   0.745  0.113E+00  0.377E-01  0.377E-01  0.377E-01
   0.755  0.113E+00  0.376E-01  0.376E-01  0.376E-01
   0.765  0.112E+00  0.374E-01  0.374E-01  0.374E-01
   0.775  0.112E+00  0.373E-01  0.373E-01  0.373E-01
   0.785  0.111E+00  0.371E-01  0.371E-01  0.371E-01
   0.795  0.111E+00  0.370E-01  0.370E-01  0.370E-01
   0.805  0.110E+00  0.368E-01  0.368E-01  0.368E-01
   0.815  0.110E+00  0.367E-01  0.367E-01  0.367E-01
   0.825  0.110E+00  0.365E-01  0.365E-01  0.365E-01
   0.835  0.109E+00  0.364E-01  0.364E-01  0.364E-01
   0.845  0.109E+00  0.362E-01  0.362E-01  0.362E-01
   0.855  0.108E+00  0.361E-01  0.361E-01  0.361E-01
   0.865  0.108E+00  0.359E-01  0.359E-01  0.359E-01
   0.875  0.107E+00  0.358E-01  0.358E-01  0.358E-01
   0.885  0.107E+00  0.356E-01  0.356E-01  0.356E-01
   0.895  0.106E+00  0.355E-01  0.355E-01  0.355E-01
   0.905  0.106E+00  0.353E-01  0.353E-01  0.353E-01
   0.915  0.105E+00  0.352E-01  0.352E-01  0.352E-01
   0.925  0.105E+00  0.350E-01  0.350E-01  0.350E-01
   0.935  0.105E+00  0.349E-01  0.349E-01  0.349E-01
   0.945  0.104E+00  0.347E-01  0.347E-01  0.347E-01
   0.955  0.104E+00  0.346E-01  0.346E-01  0.346E-01
   0.965  0.103E+00  0.344E-01  0.344E-01  0.344E-01
   0.975  0.103E+00  0.343E-01  0.343E-01  0.343E-01
   0.985  0.102E+00  0.341E-01  0.341E-01  0.341E-01
   0.995  0.102E+00  0.340E-01  0.340E-01  0.340E-01
   1.005  0.101E+00  0.338E-01  0.338E-01  0.338E-01
   1.015  0.101E+00  0.337E-01  0.337E-01  0.337E-01
   1.025  0.101E+00  0.335E-01  0.335E-01  0.335E-01
   1.035  0.100E+00  0.334E-01  0.334E-01  0.334E-01
   1.045  0.997E-01  0.332E-01  0.332E-01  0.332E-01
   1.055  0.992E-01  0.331E-01  0.331E-01  0.331E-01
   1.065  0.988E-01  0.329E-01  0.329E-01  0.329E-01
   1.075  0.984E-01  0.328E-01  0.328E-01  0.328E-01
   1.085  0.979E-01  0.326E-01  0.326E-01  0.326E-01
   1.095  0.975E-01  0.325E-01  0.325E-01  0.325E-01
   1.105  0.971E-01  0.324E-01  0.324E-01  0.324E-01
   1.115  0.966E-01  0.322E-01  0.322E-01  0.322E-01
   1.125  0.962E-01  0.321E-01  0.321E-01  0.321E-01
   1.135  0.958E-01  0.319E-01  0.319E-01  0.319E-01
   1.145  0.954E-01  0.318E-01  0.318E-01  0.318E-01
   1.155  0.949E-01  0.316E-01  0.316E-01  0.316E-01
   1.165  0.945E-01  0.315E-01  0.315E-01  0.315E-01
   1.175  0.941E-01  0.314E-01  0.314E-01  0.314E-01
   1.185  0.937E-01  0.312E-01  0.312E-01  0.312E-01
   1.195  0.932E-01  0.311E-01  0.311E-01  0.311E-01
   1.205  0.928E-01  0.309E-01  0.309E-01  0.309E-01
   1.215  0.924E-01  0.308E-01  0.308E-01  0.308E-01
   1.225  0.920E-01  0.307E-01  0.307E-01  0.307E-01
   1.235  0.916E-01  0.305E-01  0.305E-01  0.305E-01
   1.245  0.912E-01  0.304E-01  0.304E-01  0.304E-01
   1.255  0.907E-01  0.302E-01  0.302E-01  0.302E-01
   1.265  0.903E-01  0.301E-01  0.301E-01  0.301E-01
   1.275  0.899E-01  0.300E-01  0.300E-01  0.300E-01
   1.285  0.895E-01  0.298E-01  0.298E-01  0.298E-01
   1.295  0.891E-01  0.297E-01  0.297E-01  0.297E-01
   1.305  0.887E-01  0.296E-01  0.296E-01  0.296E-01
   1.315  0.883E-01  0.294E-01  0.294E-01  0.294E-01
   1.325  0.879E-01  0.293E-01  0.293E-01  0.293E-01
   1.335  0.875E-01  0.292E-01  0.292E-01  0.292E-01
   1.345  0.870E-01  0.290E-01  0.290E-01  0.290E-01
   1.355  0.828E-01  0.276E-01  0.276E-01  0.276E-01
   1.365  0.808E-01  0.269E-01  0.269E-01  0.269E-01
   1.375  0.802E-01  0.267E-01  0.267E-01  0.267E-01
   1.385  0.796E-01  0.265E-01  0.265E-01  0.265E-01
   1.395  0.791E-01  0.264E-01  0.264E-01  0.264E-01
   1.405  0.786E-01  0.262E-01  0.262E-01  0.262E-01
   1.415  0.781E-01  0.260E-01  0.260E-01  0.260E-01
   1.425  0.776E-01  0.259E-01  0.259E-01  0.259E-01
   1.435  0.771E-01  0.257E-01  0.257E-01  0.257E-01
   1.445  0.766E-01  0.255E-01  0.255E-01  0.255E-01
   1.455  0.762E-01  0.254E-01  0.254E-01  0.254E-01
   1.465  0.758E-01  0.253E-01  0.253E-01  0.253E-01
   1.475  0.753E-01  0.251E-01  0.251E-01  0.251E-01
   1.485  0.749E-01  0.250E-01  0.250E-01  0.250E-01
   1.495  0.745E-01  0.248E-01  0.248E-01  0.248E-01
   1.505  0.741E-01  0.247E-01  0.247E-01  0.247E-01
   1.515  0.737E-01  0.246E-01  0.246E-01  0.246E-01
   1.525  0.734E-01  0.245E-01  0.245E-01  0.245E-01
   1.535  0.730E-01  0.243E-01  0.243E-01  0.243E-01
   1.545  0.727E-01  0.242E-01  0.242E-01  0.242E-01
   1.555  0.723E-01  0.241E-01  0.241E-01  0.241E-01
   1.565  0.720E-01  0.240E-01  0.240E-01  0.240E-01
   1.575  0.717E-01  0.239E-01  0.239E-01  0.239E-01
   1.585  0.714E-01  0.238E-01  0.238E-01  0.238E-01
   1.595  0.711E-01  0.237E-01  0.237E-01  0.237E-01
   1.605  0.708E-01  0.236E-01  0.236E-01  0.236E-01
   1.615  0.706E-01  0.235E-01  0.235E-01  0.235E-01
   1.625  0.703E-01  0.234E-01  0.234E-01  0.234E-01
   1.635  0.700E-01  0.233E-01  0.233E-01  0.233E-01
   1.645  0.698E-01  0.233E-01  0.233E-01  0.233E-01
   1.655  0.696E-01  0.232E-01  0.232E-01  0.232E-01
   1.665  0.694E-01  0.231E-01  0.231E-01  0.231E-01
   1.675  0.691E-01  0.230E-01  0.230E-01  0.230E-01
   1.685  0.689E-01  0.230E-01  0.230E-01  0.230E-01
   1.695  0.687E-01  0.229E-01  0.229E-01  0.229E-01
   1.705  0.685E-01  0.228E-01  0.228E-01  0.228E-01
   1.715  0.683E-01  0.228E-01  0.228E-01  0.228E-01
   1.725  0.680E-01  0.227E-01  0.227E-01  0.227E-01
   1.735  0.678E-01  0.226E-01  0.226E-01  0.226E-01
   1.745  0.676E-01  0.225E-01  0.225E-01  0.225E-01
   1.755  0.675E-01  0.225E-01  0.225E-01  0.225E-01
   1.765  0.713E-01  0.238E-01  0.238E-01  0.238E-01
   1.775  0.813E-01  0.271E-01  0.271E-01  0.271E-01
   1.785  0.976E-01  0.325E-01  0.325E-01  0.325E-01
   1.795  0.120E+00  0.400E-01  0.400E-01  0.400E-01
   1.805  0.149E+00  0.496E-01  0.496E-01  0.496E-01
   1.815  0.183E+00  0.612E-01  0.612E-01  0.612E-01
   1.825  0.224E+00  0.748E-01  0.748E-01  0.748E-01
   1.835  0.259E+00  0.863E-01  0.863E-01  0.863E-01
   1.845  0.261E+00  0.869E-01  0.869E-01  0.869E-01
   1.855  0.231E+00  0.769E-01  0.769E-01  0.769E-01
   1.865  0.241E+00  0.802E-01  0.802E-01  0.802E-01
   1.875  0.251E+00  0.836E-01  0.836E-01  0.836E-01
   1.885  0.262E+00  0.873E-01  0.873E-01  0.873E-01
   1.895  0.274E+00  0.913E-01  0.913E-01  0.913E-01
   1.905  0.286E+00  0.954E-01  0.954E-01  0.954E-01
   1.915  0.299E+00  0.998E-01  0.998E-01  0.998E-01
   1.925  0.313E+00  0.104E+00  0.104E+00  0.104E+00
   1.935  0.327E+00  0.109E+00  0.109E+00  0.109E+00
   1.945  0.343E+00  0.114E+00  0.114E+00  0.114E+00
   1.955  0.358E+00  0.119E+00  0.119E+00  0.119E+00
   1.965  0.371E+00  0.124E+00  0.124E+00  0.124E+00
   1.975  0.383E+00  0.128E+00  0.128E+00  0.128E+00
   1.985  0.395E+00  0.132E+00  0.132E+00  0.132E+00
   1.995  0.407E+00  0.136E+00  0.136E+00  0.136E+00
   2.005  0.419E+00  0.140E+00  0.140E+00  0.140E+00
   2.015  0.431E+00  0.144E+00  0.144E+00  0.144E+00
   2.025  0.442E+00  0.147E+00  0.147E+00  0.147E+00
   2.035  0.454E+00  0.151E+00  0.151E+00  0.151E+00
   2.045  0.465E+00  0.155E+00  0.155E+00  0.155E+00
   2.055  0.477E+00  0.159E+00  0.159E+00  0.159E+00
   2.065  0.487E+00  0.162E+00  0.162E+00  0.162E+00
   2.075  0.498E+00  0.166E+00  0.166E+00  0.166E+00
   2.085  0.508E+00  0.169E+00  0.169E+00  0.169E+00
   2.095  0.518E+00  0.173E+00  0.173E+00  0.173E+00
   2.105  0.528E+00  0.176E+00  0.176E+00  0.176E+00
   2.115  0.541E+00  0.180E+00  0.180E+00  0.180E+00
   2.125  0.545E+00  0.182E+00  0.182E+00  0.182E+00
   2.135  0.547E+00  0.182E+00  0.182E+00  0.182E+00
   2.145  0.549E+00  0.183E+00  0.183E+00  0.183E+00
   2.155  0.550E+00  0.183E+00  0.183E+00  0.183E+00
   2.165  0.550E+00  0.183E+00  0.183E+00  0.183E+00
   2.175  0.550E+00  0.183E+00  0.183E+00  0.183E+00
   2.185  0.532E+00  0.177E+00  0.177E+00  0.177E+00
   2.195  0.512E+00  0.171E+00  0.171E+00  0.171E+00
   2.205  0.493E+00  0.164E+00  0.164E+00  0.164E+00
   2.215  0.475E+00  0.158E+00  0.158E+00  0.158E+00
   2.225  0.458E+00  0.153E+00  0.153E+00  0.153E+00
   2.235  0.442E+00  0.147E+00  0.147E+00  0.147E+00
   2.245  0.427E+00  0.142E+00  0.142E+00  0.142E+00
   2.255  0.413E+00  0.138E+00  0.138E+00  0.138E+00
   2.265  0.401E+00  0.134E+00  0.134E+00  0.134E+00
   2.275  0.393E+00  0.131E+00  0.131E+00  0.131E+00
   2.285  0.387E+00  0.129E+00  0.129E+00  0.129E+00
   2.295  0.382E+00  0.127E+00  0.127E+00  0.127E+00
   2.305  0.378E+00  0.126E+00  0.126E+00  0.126E+00
   2.315  0.374E+00  0.125E+00  0.125E+00  0.125E+00
   2.325  0.372E+00  0.124E+00  0.124E+00  0.124E+00
   2.335  0.371E+00  0.124E+00  0.124E+00  0.124E+00
   2.345  0.370E+00  0.123E+00  0.123E+00  0.123E+00
   2.355  0.370E+00  0.123E+00  0.123E+00  0.123E+00
   2.365  0.369E+00  0.123E+00  0.123E+00  0.123E+00
   2.375  0.368E+00  0.123E+00  0.123E+00  0.123E+00
   2.385  0.367E+00  0.122E+00  0.122E+00  0.122E+00
   2.395  0.367E+00  0.122E+00  0.122E+00  0.122E+00
   2.405  0.366E+00  0.122E+00  0.122E+00  0.122E+00
   2.415  0.365E+00  0.122E+00  0.122E+00  0.122E+00
   2.425  0.365E+00  0.122E+00  0.122E+00  0.122E+00
   2.435  0.364E+00  0.121E+00  0.121E+00  0.121E+00
   2.445  0.364E+00  0.121E+00  0.121E+00  0.121E+00
   2.455  0.364E+00  0.121E+00  0.121E+00  0.121E+00
   2.465  0.363E+00  0.121E+00  0.121E+00  0.121E+00
   2.475  0.363E+00  0.121E+00  0.121E+00  0.121E+00
   2.485  0.363E+00  0.121E+00  0.121E+00  0.121E+00
   2.495  0.363E+00  0.121E+00  0.121E+00  0.121E+00
   2.505  0.363E+00  0.121E+00  0.121E+00  0.121E+00
   2.515  0.363E+00  0.121E+00  0.121E+00  0.121E+00
   2.525  0.363E+00  0.121E+00  0.121E+00  0.121E+00
   2.535  0.363E+00  0.121E+00  0.121E+00  0.121E+00
   2.545  0.363E+00  0.121E+00  0.121E+00  0.121E+00
   2.555  0.363E+00  0.121E+00  0.121E+00  0.121E+00
   2.565  0.364E+00  0.121E+00  0.121E+00  0.121E+00
   2.575  0.364E+00  0.121E+00  0.121E+00  0.121E+00
   2.585  0.365E+00  0.122E+00  0.122E+00  0.122E+00
   2.595  0.365E+00  0.122E+00  0.122E+00  0.122E+00
   2.605  0.366E+00  0.122E+00  0.122E+00  0.122E+00
   2.615  0.367E+00  0.122E+00  0.122E+00  0.122E+00
   2.625  0.368E+00  0.123E+00  0.123E+00  0.123E+00
   2.635  0.369E+00  0.123E+00  0.123E+00  0.123E+00
   2.645  0.370E+00  0.123E+00  0.123E+00  0.123E+00
   2.655  0.371E+00  0.124E+00  0.124E+00  0.124E+00
   2.665  0.371E+00  0.124E+00  0.124E+00  0.124E+00
   2.675  0.371E+00  0.124E+00  0.124E+00  0.124E+00
   2.685  0.372E+00  0.124E+00  0.124E+00  0.124E+00
   2.695  0.373E+00  0.124E+00  0.124E+00  0.124E+00
   2.705  0.373E+00  0.124E+00  0.124E+00  0.124E+00
   2.715  0.374E+00  0.125E+00  0.125E+00  0.125E+00
   2.725  0.375E+00  0.125E+00  0.125E+00  0.125E+00
   2.735  0.375E+00  0.125E+00  0.125E+00  0.125E+00
   2.745  0.376E+00  0.125E+00  0.125E+00  0.125E+00
   2.755  0.377E+00  0.126E+00  0.126E+00  0.126E+00
   2.765  0.378E+00  0.126E+00  0.126E+00  0.126E+00
   2.775  0.379E+00  0.126E+00  0.126E+00  0.126E+00
   2.785  0.380E+00  0.127E+00  0.127E+00  0.127E+00
   2.795  0.382E+00  0.127E+00  0.127E+00  0.127E+00
   2.805  0.383E+00  0.128E+00  0.128E+00  0.128E+00
   2.815  0.384E+00  0.128E+00  0.128E+00  0.128E+00
   2.825  0.385E+00  0.128E+00  0.128E+00  0.128E+00
   2.835  0.440E+00  0.147E+00  0.147E+00  0.147E+00
   2.845  0.490E+00  0.163E+00  0.163E+00  0.163E+00
   2.855  0.463E+00  0.154E+00  0.154E+00  0.154E+00
   2.865  0.435E+00  0.145E+00  0.145E+00  0.145E+00
   2.875  0.416E+00  0.139E+00  0.139E+00  0.139E+00
   2.885  0.407E+00  0.136E+00  0.136E+00  0.136E+00
   2.895  0.406E+00  0.135E+00  0.135E+00  0.135E+00
   2.905  0.408E+00  0.136E+00  0.136E+00  0.136E+00
   2.915  0.410E+00  0.137E+00  0.137E+00  0.137E+00
   2.925  0.412E+00  0.137E+00  0.137E+00  0.137E+00
   2.935  0.414E+00  0.138E+00  0.138E+00  0.138E+00
   2.945  0.417E+00  0.139E+00  0.139E+00  0.139E+00
   2.955  0.420E+00  0.140E+00  0.140E+00  0.140E+00
   2.965  0.423E+00  0.141E+00  0.141E+00  0.141E+00
   2.975  0.426E+00  0.142E+00  0.142E+00  0.142E+00
   2.985  0.429E+00  0.143E+00  0.143E+00  0.143E+00
   2.995  0.433E+00  0.144E+00  0.144E+00  0.144E+00
   3.005  0.437E+00  0.146E+00  0.146E+00  0.146E+00
   3.015  0.441E+00  0.147E+00  0.147E+00  0.147E+00
   3.025  0.445E+00  0.148E+00  0.148E+00  0.148E+00
   3.035  0.449E+00  0.150E+00  0.150E+00  0.150E+00
   3.045  0.454E+00  0.151E+00  0.151E+00  0.151E+00
   3.055  0.459E+00  0.153E+00  0.153E+00  0.153E+00
   3.065  0.464E+00  0.155E+00  0.155E+00  0.155E+00
   3.075  0.469E+00  0.156E+00  0.156E+00  0.156E+00
   3.085  0.475E+00  0.158E+00  0.158E+00  0.158E+00
   3.095  0.480E+00  0.160E+00  0.160E+00  0.160E+00
   3.105  0.486E+00  0.162E+00  0.162E+00  0.162E+00
   3.115  0.492E+00  0.164E+00  0.164E+00  0.164E+00
   3.125  0.535E+00  0.178E+00  0.178E+00  0.178E+00
   3.135  0.589E+00  0.196E+00  0.196E+00  0.196E+00
   3.145  0.576E+00  0.192E+00  0.192E+00  0.192E+00
   3.155  0.565E+00  0.188E+00  0.188E+00  0.188E+00
   3.165  0.556E+00  0.185E+00  0.185E+00  0.185E+00
   3.175  0.549E+00  0.183E+00  0.183E+00  0.183E+00
   3.185  0.544E+00  0.181E+00  0.181E+00  0.181E+00
   3.195  0.542E+00  0.181E+00  0.181E+00  0.181E+00
   3.205  0.541E+00  0.180E+00  0.180E+00  0.180E+00
   3.215  0.543E+00  0.181E+00  0.181E+00  0.181E+00
   3.225  0.548E+00  0.183E+00  0.183E+00  0.183E+00
   3.235  0.553E+00  0.184E+00  0.184E+00  0.184E+00
   3.245  0.559E+00  0.186E+00  0.186E+00  0.186E+00
   3.255  0.566E+00  0.189E+00  0.189E+00  0.189E+00
   3.265  0.571E+00  0.190E+00  0.190E+00  0.190E+00
   3.275  0.576E+00  0.192E+00  0.192E+00  0.192E+00
   3.285  0.583E+00  0.194E+00  0.194E+00  0.194E+00
   3.295  0.591E+00  0.197E+00  0.197E+00  0.197E+00
   3.305  0.600E+00  0.200E+00  0.200E+00  0.200E+00
   3.315  0.612E+00  0.204E+00  0.204E+00  0.204E+00
   3.325  0.624E+00  0.208E+00  0.208E+00  0.208E+00
   3.335  0.637E+00  0.212E+00  0.212E+00  0.212E+00
   3.345  0.652E+00  0.217E+00  0.217E+00  0.217E+00
   3.355  0.667E+00  0.222E+00  0.222E+00  0.222E+00
   3.365  0.683E+00  0.228E+00  0.228E+00  0.228E+00
   3.375  0.701E+00  0.234E+00  0.234E+00  0.234E+00
   3.385  0.710E+00  0.237E+00  0.237E+00  0.237E+00
   3.395  0.672E+00  0.224E+00  0.224E+00  0.224E+00
   3.405  0.642E+00  0.214E+00  0.214E+00  0.214E+00
   3.415  0.622E+00  0.207E+00  0.207E+00  0.207E+00
   3.425  0.610E+00  0.203E+00  0.203E+00  0.203E+00
   3.435  0.608E+00  0.203E+00  0.203E+00  0.203E+00
   3.445  0.607E+00  0.202E+00  0.202E+00  0.202E+00
   3.455  0.606E+00  0.202E+00  0.202E+00  0.202E+00
   3.465  0.604E+00  0.201E+00  0.201E+00  0.201E+00
   3.475  0.603E+00  0.201E+00  0.201E+00  0.201E+00
   3.485  0.602E+00  0.201E+00  0.201E+00  0.201E+00
   3.495  0.601E+00  0.200E+00  0.200E+00  0.200E+00
   3.505  0.600E+00  0.200E+00  0.200E+00  0.200E+00
   3.515  0.598E+00  0.199E+00  0.199E+00  0.199E+00
   3.525  0.597E+00  0.199E+00  0.199E+00  0.199E+00
   3.535  0.596E+00  0.199E+00  0.199E+00  0.199E+00
   3.545  0.595E+00  0.198E+00  0.198E+00  0.198E+00
   3.555  0.594E+00  0.198E+00  0.198E+00  0.198E+00
   3.565  0.593E+00  0.198E+00  0.198E+00  0.198E+00
   3.575  0.592E+00  0.197E+00  0.197E+00  0.197E+00
   3.585  0.590E+00  0.197E+00  0.197E+00  0.197E+00
   3.595  0.589E+00  0.196E+00  0.196E+00  0.196E+00
   3.605  0.588E+00  0.196E+00  0.196E+00  0.196E+00
   3.615  0.587E+00  0.196E+00  0.196E+00  0.196E+00
   3.625  0.585E+00  0.195E+00  0.195E+00  0.195E+00
   3.635  0.584E+00  0.195E+00  0.195E+00  0.195E+00
   3.645  0.583E+00  0.194E+00  0.194E+00  0.194E+00
   3.655  0.582E+00  0.194E+00  0.194E+00  0.194E+00
   3.665  0.582E+00  0.194E+00  0.194E+00  0.194E+00
   3.675  0.581E+00  0.194E+00  0.194E+00  0.194E+00
   3.685  0.582E+00  0.194E+00  0.194E+00  0.194E+00
   3.695  0.582E+00  0.194E+00  0.194E+00  0.194E+00
   3.705  0.587E+00  0.196E+00  0.196E+00  0.196E+00
   3.715  0.587E+00  0.196E+00  0.196E+00  0.196E+00
   3.725  0.587E+00  0.196E+00  0.196E+00  0.196E+00
   3.735  0.587E+00  0.196E+00  0.196E+00  0.196E+00
   3.745  0.587E+00  0.196E+00  0.196E+00  0.196E+00
   3.755  0.586E+00  0.195E+00  0.195E+00  0.195E+00
   3.765  0.586E+00  0.195E+00  0.195E+00  0.195E+00
   3.775  0.586E+00  0.195E+00  0.195E+00  0.195E+00
   3.785  0.585E+00  0.195E+00  0.195E+00  0.195E+00
   3.795  0.585E+00  0.195E+00  0.195E+00  0.195E+00
   3.805  0.584E+00  0.195E+00  0.195E+00  0.195E+00
   3.815  0.584E+00  0.195E+00  0.195E+00  0.195E+00
   3.825  0.583E+00  0.194E+00  0.194E+00  0.194E+00
   3.835  0.583E+00  0.194E+00  0.194E+00  0.194E+00
   3.845  0.582E+00  0.194E+00  0.194E+00  0.194E+00
   3.855  0.581E+00  0.194E+00  0.194E+00  0.194E+00
   3.865  0.581E+00  0.194E+00  0.194E+00  0.194E+00
   3.875  0.580E+00  0.193E+00  0.193E+00  0.193E+00
   3.885  0.579E+00  0.193E+00  0.193E+00  0.193E+00
   3.895  0.578E+00  0.193E+00  0.193E+00  0.193E+00
   3.905  0.577E+00  0.192E+00  0.192E+00  0.192E+00
   3.915  0.576E+00  0.192E+00  0.192E+00  0.192E+00
   3.925  0.575E+00  0.192E+00  0.192E+00  0.192E+00
   3.935  0.574E+00  0.191E+00  0.191E+00  0.191E+00
   3.945  0.573E+00  0.191E+00  0.191E+00  0.191E+00
   3.955  0.572E+00  0.191E+00  0.191E+00  0.191E+00
   3.965  0.571E+00  0.190E+00  0.190E+00  0.190E+00
   3.975  0.570E+00  0.190E+00  0.190E+00  0.190E+00
   3.985  0.569E+00  0.190E+00  0.190E+00  0.190E+00
   3.995  0.568E+00  0.189E+00  0.189E+00  0.189E+00
   4.005  0.567E+00  0.189E+00  0.189E+00  0.189E+00
   4.015  0.566E+00  0.189E+00  0.189E+00  0.189E+00
   4.025  0.565E+00  0.188E+00  0.188E+00  0.188E+00
   4.035  0.564E+00  0.188E+00  0.188E+00  0.188E+00
   4.045  0.563E+00  0.188E+00  0.188E+00  0.188E+00
   4.055  0.562E+00  0.187E+00  0.187E+00  0.187E+00
   4.065  0.562E+00  0.187E+00  0.187E+00  0.187E+00
   4.075  0.561E+00  0.187E+00  0.187E+00  0.187E+00
   4.085  0.561E+00  0.187E+00  0.187E+00  0.187E+00
   4.095  0.560E+00  0.187E+00  0.187E+00  0.187E+00
   4.105  0.560E+00  0.187E+00  0.187E+00  0.187E+00
   4.115  0.560E+00  0.187E+00  0.187E+00  0.187E+00
   4.125  0.560E+00  0.187E+00  0.187E+00  0.187E+00
   4.135  0.559E+00  0.186E+00  0.186E+00  0.186E+00
   4.145  0.557E+00  0.186E+00  0.186E+00  0.186E+00
   4.155  0.555E+00  0.185E+00  0.185E+00  0.185E+00
   4.165  0.554E+00  0.185E+00  0.185E+00  0.185E+00
   4.175  0.552E+00  0.184E+00  0.184E+00  0.184E+00
   4.185  0.551E+00  0.184E+00  0.184E+00  0.184E+00
   4.195  0.550E+00  0.183E+00  0.183E+00  0.183E+00
   4.205  0.550E+00  0.183E+00  0.183E+00  0.183E+00
   4.215  0.549E+00  0.183E+00  0.183E+00  0.183E+00
   4.225  0.549E+00  0.183E+00  0.183E+00  0.183E+00
   4.235  0.548E+00  0.183E+00  0.183E+00  0.183E+00
   4.245  0.548E+00  0.183E+00  0.183E+00  0.183E+00
   4.255  0.548E+00  0.183E+00  0.183E+00  0.183E+00
   4.265  0.549E+00  0.183E+00  0.183E+00  0.183E+00
   4.275  0.549E+00  0.183E+00  0.183E+00  0.183E+00
   4.285  0.550E+00  0.183E+00  0.183E+00  0.183E+00
   4.295  0.551E+00  0.184E+00  0.184E+00  0.184E+00
   4.305  0.552E+00  0.184E+00  0.184E+00  0.184E+00
   4.315  0.553E+00  0.184E+00  0.184E+00  0.184E+00
   4.325  0.554E+00  0.185E+00  0.185E+00  0.185E+00
   4.335  0.555E+00  0.185E+00  0.185E+00  0.185E+00
   4.345  0.555E+00  0.185E+00  0.185E+00  0.185E+00
   4.355  0.556E+00  0.185E+00  0.185E+00  0.185E+00
   4.365  0.556E+00  0.185E+00  0.185E+00  0.185E+00
   4.375  0.556E+00  0.185E+00  0.185E+00  0.185E+00
   4.385  0.556E+00  0.185E+00  0.185E+00  0.185E+00
   4.395  0.555E+00  0.185E+00  0.185E+00  0.185E+00
   4.405  0.555E+00  0.185E+00  0.185E+00  0.185E+00
   4.415  0.554E+00  0.185E+00  0.185E+00  0.185E+00
   4.425  0.553E+00  0.184E+00  0.184E+00  0.184E+00
   4.435  0.552E+00  0.184E+00  0.184E+00  0.184E+00
   4.445  0.550E+00  0.183E+00  0.183E+00  0.183E+00
   4.455  0.549E+00  0.183E+00  0.183E+00  0.183E+00
   4.465  0.547E+00  0.182E+00  0.182E+00  0.182E+00
   4.475  0.545E+00  0.182E+00  0.182E+00  0.182E+00
   4.485  0.544E+00  0.181E+00  0.181E+00  0.181E+00
   4.495  0.542E+00  0.181E+00  0.181E+00  0.181E+00
   4.505  0.540E+00  0.180E+00  0.180E+00  0.180E+00
   4.515  0.538E+00  0.179E+00  0.179E+00  0.179E+00
   4.525  0.536E+00  0.179E+00  0.179E+00  0.179E+00
   4.535  0.534E+00  0.178E+00  0.178E+00  0.178E+00
   4.545  0.532E+00  0.177E+00  0.177E+00  0.177E+00
   4.555  0.530E+00  0.177E+00  0.177E+00  0.177E+00
   4.565  0.528E+00  0.176E+00  0.176E+00  0.176E+00
   4.575  0.526E+00  0.175E+00  0.175E+00  0.175E+00
   4.585  0.524E+00  0.175E+00  0.175E+00  0.175E+00
   4.595  0.521E+00  0.174E+00  0.174E+00  0.174E+00
   4.605  0.519E+00  0.173E+00  0.173E+00  0.173E+00
   4.615  0.517E+00  0.172E+00  0.172E+00  0.172E+00
   4.625  0.514E+00  0.171E+00  0.171E+00  0.171E+00
   4.635  0.512E+00  0.171E+00  0.171E+00  0.171E+00
   4.645  0.509E+00  0.170E+00  0.170E+00  0.170E+00
   4.655  0.506E+00  0.169E+00  0.169E+00  0.169E+00
   4.665  0.504E+00  0.168E+00  0.168E+00  0.168E+00
   4.675  0.501E+00  0.167E+00  0.167E+00  0.167E+00
   4.685  0.499E+00  0.166E+00  0.166E+00  0.166E+00
   4.695  0.497E+00  0.166E+00  0.166E+00  0.166E+00
   4.705  0.498E+00  0.166E+00  0.166E+00  0.166E+00
   4.715  0.498E+00  0.166E+00  0.166E+00  0.166E+00
   4.725  0.499E+00  0.166E+00  0.166E+00  0.166E+00
   4.735  0.500E+00  0.167E+00  0.167E+00  0.167E+00
   4.745  0.500E+00  0.167E+00  0.167E+00  0.167E+00
   4.755  0.500E+00  0.167E+00  0.167E+00  0.167E+00
   4.765  0.500E+00  0.167E+00  0.167E+00  0.167E+00
   4.775  0.501E+00  0.167E+00  0.167E+00  0.167E+00
   4.785  0.500E+00  0.167E+00  0.167E+00  0.167E+00
   4.795  0.500E+00  0.167E+00  0.167E+00  0.167E+00
   4.805  0.500E+00  0.167E+00  0.167E+00  0.167E+00
   4.815  0.499E+00  0.166E+00  0.166E+00  0.166E+00
   4.825  0.498E+00  0.166E+00  0.166E+00  0.166E+00
   4.835  0.496E+00  0.165E+00  0.165E+00  0.165E+00
   4.845  0.494E+00  0.165E+00  0.165E+00  0.165E+00
   4.855  0.491E+00  0.164E+00  0.164E+00  0.164E+00
   4.865  0.488E+00  0.163E+00  0.163E+00  0.163E+00
   4.875  0.485E+00  0.162E+00  0.162E+00  0.162E+00
   4.885  0.481E+00  0.160E+00  0.160E+00  0.160E+00
   4.895  0.477E+00  0.159E+00  0.159E+00  0.159E+00
   4.905  0.471E+00  0.157E+00  0.157E+00  0.157E+00
   4.915  0.463E+00  0.154E+00  0.154E+00  0.154E+00
   4.925  0.453E+00  0.151E+00  0.151E+00  0.151E+00
   4.935  0.439E+00  0.146E+00  0.146E+00  0.146E+00
   4.945  0.423E+00  0.141E+00  0.141E+00  0.141E+00
   4.955  0.407E+00  0.136E+00  0.136E+00  0.136E+00
   4.965  0.393E+00  0.131E+00  0.131E+00  0.131E+00
   4.975  0.380E+00  0.127E+00  0.127E+00  0.127E+00
   4.985  0.370E+00  0.123E+00  0.123E+00  0.123E+00
   4.995  0.361E+00  0.120E+00  0.120E+00  0.120E+00
   5.005  0.355E+00  0.118E+00  0.118E+00  0.118E+00
   5.015  0.351E+00  0.117E+00  0.117E+00  0.117E+00
   5.025  0.348E+00  0.116E+00  0.116E+00  0.116E+00
   5.035  0.344E+00  0.115E+00  0.115E+00  0.115E+00
   5.045  0.341E+00  0.114E+00  0.114E+00  0.114E+00
   5.055  0.338E+00  0.113E+00  0.113E+00  0.113E+00
   5.065  0.334E+00  0.111E+00  0.111E+00  0.111E+00
   5.075  0.331E+00  0.110E+00  0.110E+00  0.110E+00
   5.085  0.328E+00  0.109E+00  0.109E+00  0.109E+00
   5.095  0.324E+00  0.108E+00  0.108E+00  0.108E+00
   5.105  0.321E+00  0.107E+00  0.107E+00  0.107E+00
   5.115  0.317E+00  0.106E+00  0.106E+00  0.106E+00
   5.125  0.313E+00  0.104E+00  0.104E+00  0.104E+00
   5.135  0.308E+00  0.103E+00  0.103E+00  0.103E+00
   5.145  0.302E+00  0.101E+00  0.101E+00  0.101E+00
   5.155  0.297E+00  0.988E-01  0.988E-01  0.988E-01
   5.165  0.291E+00  0.969E-01  0.969E-01  0.969E-01
   5.175  0.285E+00  0.950E-01  0.950E-01  0.950E-01
   5.185  0.279E+00  0.930E-01  0.930E-01  0.930E-01
   5.195  0.273E+00  0.910E-01  0.910E-01  0.910E-01
   5.205  0.267E+00  0.889E-01  0.889E-01  0.889E-01
   5.215  0.260E+00  0.868E-01  0.868E-01  0.868E-01
   5.225  0.254E+00  0.847E-01  0.847E-01  0.847E-01
   5.235  0.250E+00  0.832E-01  0.832E-01  0.832E-01
   5.245  0.246E+00  0.820E-01  0.820E-01  0.820E-01
   5.255  0.243E+00  0.809E-01  0.809E-01  0.809E-01
   5.265  0.239E+00  0.797E-01  0.797E-01  0.797E-01
   5.275  0.235E+00  0.784E-01  0.784E-01  0.784E-01
   5.285  0.232E+00  0.772E-01  0.772E-01  0.772E-01
   5.295  0.228E+00  0.760E-01  0.760E-01  0.760E-01
   5.305  0.224E+00  0.747E-01  0.747E-01  0.747E-01
   5.315  0.221E+00  0.735E-01  0.735E-01  0.735E-01
   5.325  0.217E+00  0.723E-01  0.723E-01  0.723E-01
   5.335  0.213E+00  0.711E-01  0.711E-01  0.711E-01
   5.345  0.210E+00  0.699E-01  0.699E-01  0.699E-01
   5.355  0.206E+00  0.688E-01  0.688E-01  0.688E-01
   5.365  0.203E+00  0.676E-01  0.676E-01  0.676E-01
   5.375  0.199E+00  0.665E-01  0.665E-01  0.665E-01
   5.385  0.196E+00  0.653E-01  0.653E-01  0.653E-01
   5.395  0.193E+00  0.642E-01  0.642E-01  0.642E-01
   5.405  0.189E+00  0.631E-01  0.631E-01  0.631E-01
   5.415  0.186E+00  0.621E-01  0.621E-01  0.621E-01
   5.425  0.183E+00  0.610E-01  0.610E-01  0.610E-01
   5.435  0.180E+00  0.599E-01  0.599E-01  0.599E-01
   5.445  0.177E+00  0.589E-01  0.589E-01  0.589E-01
   5.455  0.174E+00  0.579E-01  0.579E-01  0.579E-01
   5.465  0.171E+00  0.569E-01  0.569E-01  0.569E-01
   5.475  0.168E+00  0.559E-01  0.559E-01  0.559E-01
   5.485  0.165E+00  0.549E-01  0.549E-01  0.549E-01
   5.495  0.162E+00  0.539E-01  0.539E-01  0.539E-01
   5.505  0.159E+00  0.529E-01  0.529E-01  0.529E-01
   5.515  0.156E+00  0.520E-01  0.520E-01  0.520E-01
   5.525  0.153E+00  0.511E-01  0.511E-01  0.511E-01
   5.535  0.151E+00  0.502E-01  0.502E-01  0.502E-01
   5.545  0.148E+00  0.493E-01  0.493E-01  0.493E-01
   5.555  0.145E+00  0.484E-01  0.484E-01  0.484E-01
   5.565  0.143E+00  0.475E-01  0.475E-01  0.475E-01
   5.575  0.140E+00  0.467E-01  0.467E-01  0.467E-01
   5.585  0.137E+00  0.458E-01  0.458E-01  0.458E-01
   5.595  0.135E+00  0.449E-01  0.449E-01  0.449E-01
   5.605  0.132E+00  0.439E-01  0.439E-01  0.439E-01
   5.615  0.129E+00  0.430E-01  0.430E-01  0.430E-01
   5.625  0.126E+00  0.421E-01  0.421E-01  0.421E-01
   5.635  0.123E+00  0.411E-01  0.411E-01  0.411E-01
   5.645  0.121E+00  0.402E-01  0.402E-01  0.402E-01
   5.655  0.118E+00  0.393E-01  0.393E-01  0.393E-01
   5.665  0.115E+00  0.384E-01  0.384E-01  0.384E-01
   5.675  0.113E+00  0.375E-01  0.375E-01  0.375E-01
   5.685  0.110E+00  0.367E-01  0.367E-01  0.367E-01
   5.695  0.108E+00  0.359E-01  0.359E-01  0.359E-01
   5.705  0.105E+00  0.351E-01  0.351E-01  0.351E-01
   5.715  0.103E+00  0.344E-01  0.344E-01  0.344E-01
   5.725  0.101E+00  0.336E-01  0.336E-01  0.336E-01
   5.735  0.989E-01  0.330E-01  0.330E-01  0.330E-01
   5.745  0.969E-01  0.323E-01  0.323E-01  0.323E-01
   5.755  0.950E-01  0.317E-01  0.317E-01  0.317E-01
   5.765  0.931E-01  0.310E-01  0.310E-01  0.310E-01
   5.775  0.914E-01  0.305E-01  0.305E-01  0.305E-01
   5.785  0.897E-01  0.299E-01  0.299E-01  0.299E-01
   5.795  0.881E-01  0.294E-01  0.294E-01  0.294E-01
   5.805  0.866E-01  0.289E-01  0.289E-01  0.289E-01
   5.815  0.852E-01  0.284E-01  0.284E-01  0.284E-01
   5.825  0.838E-01  0.279E-01  0.279E-01  0.279E-01
   5.835  0.826E-01  0.275E-01  0.275E-01  0.275E-01
   5.845  0.814E-01  0.271E-01  0.271E-01  0.271E-01
   5.855  0.802E-01  0.267E-01  0.267E-01  0.267E-01
   5.865  0.792E-01  0.264E-01  0.264E-01  0.264E-01
   5.875  0.782E-01  0.261E-01  0.261E-01  0.261E-01
   5.885  0.773E-01  0.258E-01  0.258E-01  0.258E-01
   5.895  0.764E-01  0.255E-01  0.255E-01  0.255E-01
   5.905  0.756E-01  0.252E-01  0.252E-01  0.252E-01
   5.915  0.749E-01  0.250E-01  0.250E-01  0.250E-01
   5.925  0.743E-01  0.248E-01  0.248E-01  0.248E-01
   5.935  0.737E-01  0.246E-01  0.246E-01  0.246E-01
   5.945  0.706E-01  0.235E-01  0.235E-01  0.235E-01
   5.955  0.440E-01  0.147E-01  0.147E-01  0.147E-01
   5.965  0.316E-01  0.105E-01  0.105E-01  0.105E-01
   5.975  0.276E-01  0.918E-02  0.918E-02  0.918E-02
   5.985  0.245E-01  0.815E-02  0.815E-02  0.815E-02
   5.995  0.215E-01  0.718E-02  0.718E-02  0.718E-02
   6.005  0.188E-01  0.627E-02  0.627E-02  0.627E-02
   6.015  0.162E-01  0.542E-02  0.542E-02  0.542E-02
   6.025  0.139E-01  0.463E-02  0.463E-02  0.463E-02
   6.035  0.117E-01  0.390E-02  0.390E-02  0.390E-02
   6.045  0.968E-02  0.323E-02  0.323E-02  0.323E-02
   6.055  0.786E-02  0.262E-02  0.262E-02  0.262E-02
   6.065  0.622E-02  0.207E-02  0.207E-02  0.207E-02
   6.075  0.478E-02  0.159E-02  0.159E-02  0.159E-02
   6.085  0.352E-02  0.117E-02  0.117E-02  0.117E-02
   6.095  0.245E-02  0.817E-03  0.817E-03  0.817E-03
   6.105  0.158E-02  0.525E-03  0.525E-03  0.525E-03
   6.115  0.891E-03  0.297E-03  0.297E-03  0.297E-03
   6.125  0.399E-03  0.133E-03  0.133E-03  0.133E-03
   6.135  0.102E-03  0.339E-04  0.339E-04  0.339E-04
   6.145  0.328E-07  0.109E-07  0.109E-07  0.109E-07
   6.155  0.000E+00  0.000E+00  0.000E+00  0.000E+00
   6.165  0.000E+00  0.000E+00  0.000E+00  0.000E+00
   6.175  0.000E+00  0.000E+00  0.000E+00  0.000E+00
   6.185  0.000E+00  0.000E+00  0.000E+00  0.000E+00
   6.195  0.000E+00  0.000E+00  0.000E+00  0.000E+00
   6.205  0.000E+00  0.000E+00  0.000E+00  0.000E+00
   6.215  0.000E+00  0.000E+00  0.000E+00  0.000E+00
   6.225  0.000E+00  0.000E+00  0.000E+00  0.000E+00
   6.235  0.000E+00  0.000E+00  0.000E+00  0.000E+00
   6.245  0.000E+00  0.000E+00  0.000E+00  0.000E+00
   6.255  0.000E+00  0.000E+00  0.000E+00  0.000E+00
   6.265  0.000E+00  0.000E+00  0.000E+00  0.000E+00
   6.275  0.000E+00  0.000E+00  0.000E+00  0.000E+00
   6.285  0.000E+00  0.000E+00  0.000E+00  0.000E+00
   6.295  0.000E+00  0.000E+00  0.000E+00  0.000E+00
   6.305  0.000E+00  0.000E+00  0.000E+00  0.000E+00
   6.315  0.000E+00  0.000E+00  0.000E+00  0.000E+00
   6.325  0.000E+00  0.000E+00  0.000E+00  0.000E+00
   6.335  0.000E+00  0.000E+00  0.000E+00  0.000E+00
   6.345  0.000E+00  0.000E+00  0.000E+00  0.000E+00
   6.355  0.000E+00  0.000E+00  0.000E+00  0.000E+00
   6.365  0.000E+00  0.000E+00  0.000E+00  0.000E+00
   6.375  0.000E+00  0.000E+00  0.000E+00  0.000E+00
   6.385  0.000E+00  0.000E+00  0.000E+00  0.000E+00
   6.395  0.000E+00  0.000E+00  0.000E+00  0.000E+00
   6.405  0.000E+00  0.000E+00  0.000E+00  0.000E+00
   6.415  0.000E+00  0.000E+00  0.000E+00  0.000E+00
   6.425  0.000E+00  0.000E+00  0.000E+00  0.000E+00
   6.435  0.000E+00  0.000E+00  0.000E+00  0.000E+00
   6.445  0.000E+00  0.000E+00  0.000E+00  0.000E+00
   6.455  0.000E+00  0.000E+00  0.000E+00  0.000E+00
   6.465  0.000E+00  0.000E+00  0.000E+00  0.000E+00
   6.475  0.000E+00  0.000E+00  0.000E+00  0.000E+00
   6.485  0.000E+00  0.000E+00  0.000E+00  0.000E+00
   6.495  0.000E+00  0.000E+00  0.000E+00  0.000E+00
   6.505  0.000E+00  0.000E+00  0.000E+00  0.000E+00
   6.515  0.000E+00  0.000E+00  0.000E+00  0.000E+00
   6.525  0.000E+00  0.000E+00  0.000E+00  0.000E+00
   6.535  0.000E+00  0.000E+00  0.000E+00  0.000E+00
   6.545  0.000E+00  0.000E+00  0.000E+00  0.000E+00
   6.555  0.000E+00  0.000E+00  0.000E+00  0.000E+00
   6.565  0.000E+00  0.000E+00  0.000E+00  0.000E+00
   6.575  0.000E+00  0.000E+00  0.000E+00  0.000E+00
   6.585  0.000E+00  0.000E+00  0.000E+00  0.000E+00
   6.595  0.000E+00  0.000E+00  0.000E+00  0.000E+00
   6.605  0.000E+00  0.000E+00  0.000E+00  0.000E+00
   6.615  0.000E+00  0.000E+00  0.000E+00  0.000E+00
   6.625  0.644E-04  0.215E-04  0.215E-04  0.215E-04
   6.635  0.393E-03  0.131E-03  0.131E-03  0.131E-03
   6.645  0.998E-03  0.333E-03  0.333E-03  0.333E-03
   6.655  0.188E-02  0.625E-03  0.625E-03  0.625E-03
   6.665  0.302E-02  0.101E-02  0.101E-02  0.101E-02
   6.675  0.444E-02  0.148E-02  0.148E-02  0.148E-02
   6.685  0.612E-02  0.204E-02  0.204E-02  0.204E-02
   6.695  0.805E-02  0.268E-02  0.268E-02  0.268E-02
   6.705  0.102E-01  0.342E-02  0.342E-02  0.342E-02
   6.715  0.127E-01  0.423E-02  0.423E-02  0.423E-02
   6.725  0.154E-01  0.513E-02  0.513E-02  0.513E-02
   6.735  0.183E-01  0.611E-02  0.611E-02  0.611E-02
   6.745  0.215E-01  0.717E-02  0.717E-02  0.717E-02
   6.755  0.245E-01  0.815E-02  0.815E-02  0.815E-02
   6.765  0.271E-01  0.904E-02  0.904E-02  0.904E-02
   6.775  0.294E-01  0.981E-02  0.981E-02  0.981E-02
   6.785  0.314E-01  0.105E-01  0.105E-01  0.105E-01
   6.795  0.331E-01  0.110E-01  0.110E-01  0.110E-01
   6.805  0.345E-01  0.115E-01  0.115E-01  0.115E-01
   6.815  0.355E-01  0.118E-01  0.118E-01  0.118E-01
   6.825  0.362E-01  0.121E-01  0.121E-01  0.121E-01
   6.835  0.366E-01  0.122E-01  0.122E-01  0.122E-01
   6.845  0.366E-01  0.122E-01  0.122E-01  0.122E-01
   6.855  0.373E-01  0.124E-01  0.124E-01  0.124E-01
   6.865  0.392E-01  0.131E-01  0.131E-01  0.131E-01
   6.875  0.412E-01  0.137E-01  0.137E-01  0.137E-01
   6.885  0.432E-01  0.144E-01  0.144E-01  0.144E-01
   6.895  0.452E-01  0.151E-01  0.151E-01  0.151E-01
   6.905  0.474E-01  0.158E-01  0.158E-01  0.158E-01
   6.915  0.495E-01  0.165E-01  0.165E-01  0.165E-01
   6.925  0.516E-01  0.172E-01  0.172E-01  0.172E-01
   6.935  0.538E-01  0.179E-01  0.179E-01  0.179E-01
   6.945  0.559E-01  0.186E-01  0.186E-01  0.186E-01
   6.955  0.580E-01  0.193E-01  0.193E-01  0.193E-01
   6.965  0.600E-01  0.200E-01  0.200E-01  0.200E-01
   6.975  0.621E-01  0.207E-01  0.207E-01  0.207E-01
   6.985  0.641E-01  0.214E-01  0.214E-01  0.214E-01
   6.995  0.662E-01  0.221E-01  0.221E-01  0.221E-01
   7.005  0.682E-01  0.227E-01  0.227E-01  0.227E-01
   7.015  0.702E-01  0.234E-01  0.234E-01  0.234E-01
   7.025  0.722E-01  0.241E-01  0.241E-01  0.241E-01
   7.035  0.741E-01  0.247E-01  0.247E-01  0.247E-01
   7.045  0.761E-01  0.254E-01  0.254E-01  0.254E-01
   7.055  0.780E-01  0.260E-01  0.260E-01  0.260E-01
   7.065  0.800E-01  0.267E-01  0.267E-01  0.267E-01
   7.075  0.819E-01  0.273E-01  0.273E-01  0.273E-01
   7.085  0.838E-01  0.279E-01  0.279E-01  0.279E-01
   7.095  0.857E-01  0.286E-01  0.286E-01  0.286E-01
   7.105  0.879E-01  0.293E-01  0.293E-01  0.293E-01
   7.115  0.901E-01  0.300E-01  0.300E-01  0.300E-01
   7.125  0.923E-01  0.308E-01  0.308E-01  0.308E-01
   7.135  0.945E-01  0.315E-01  0.315E-01  0.315E-01
   7.145  0.967E-01  0.322E-01  0.322E-01  0.322E-01
   7.155  0.989E-01  0.330E-01  0.330E-01  0.330E-01
   7.165  0.101E+00  0.337E-01  0.337E-01  0.337E-01
   7.175  0.103E+00  0.344E-01  0.344E-01  0.344E-01
   7.185  0.105E+00  0.352E-01  0.352E-01  0.352E-01
   7.195  0.108E+00  0.359E-01  0.359E-01  0.359E-01
   7.205  0.110E+00  0.366E-01  0.366E-01  0.366E-01
   7.215  0.112E+00  0.373E-01  0.373E-01  0.373E-01
   7.225  0.114E+00  0.380E-01  0.380E-01  0.380E-01
   7.235  0.116E+00  0.388E-01  0.388E-01  0.388E-01
   7.245  0.118E+00  0.395E-01  0.395E-01  0.395E-01
   7.255  0.121E+00  0.402E-01  0.402E-01  0.402E-01
   7.265  0.123E+00  0.409E-01  0.409E-01  0.409E-01
   7.275  0.125E+00  0.416E-01  0.416E-01  0.416E-01
   7.285  0.127E+00  0.423E-01  0.423E-01  0.423E-01
   7.295  0.129E+00  0.431E-01  0.431E-01  0.431E-01
   7.305  0.131E+00  0.438E-01  0.438E-01  0.438E-01
   7.315  0.134E+00  0.446E-01  0.446E-01  0.446E-01
   7.325  0.136E+00  0.453E-01  0.453E-01  0.453E-01
   7.335  0.138E+00  0.461E-01  0.461E-01  0.461E-01
   7.345  0.141E+00  0.469E-01  0.469E-01  0.469E-01
   7.355  0.143E+00  0.477E-01  0.477E-01  0.477E-01
   7.365  0.145E+00  0.485E-01  0.485E-01  0.485E-01
   7.375  0.148E+00  0.493E-01  0.493E-01  0.493E-01
   7.385  0.150E+00  0.501E-01  0.501E-01  0.501E-01
   7.395  0.153E+00  0.510E-01  0.510E-01  0.510E-01
   7.405  0.156E+00  0.519E-01  0.519E-01  0.519E-01
   7.415  0.158E+00  0.528E-01  0.528E-01  0.528E-01
   7.425  0.161E+00  0.537E-01  0.537E-01  0.537E-01
   7.435  0.164E+00  0.546E-01  0.546E-01  0.546E-01
   7.445  0.167E+00  0.555E-01  0.555E-01  0.555E-01
   7.455  0.169E+00  0.565E-01  0.565E-01  0.565E-01
   7.465  0.172E+00  0.574E-01  0.574E-01  0.574E-01
   7.475  0.175E+00  0.584E-01  0.584E-01  0.584E-01
   7.485  0.178E+00  0.594E-01  0.594E-01  0.594E-01
   7.495  0.181E+00  0.604E-01  0.604E-01  0.604E-01
   7.505  0.184E+00  0.614E-01  0.614E-01  0.614E-01
   7.515  0.187E+00  0.625E-01  0.625E-01  0.625E-01
   7.525  0.191E+00  0.635E-01  0.635E-01  0.635E-01
   7.535  0.194E+00  0.646E-01  0.646E-01  0.646E-01
   7.545  0.197E+00  0.657E-01  0.657E-01  0.657E-01
   7.555  0.200E+00  0.668E-01  0.668E-01  0.668E-01
   7.565  0.204E+00  0.679E-01  0.679E-01  0.679E-01
   7.575  0.207E+00  0.690E-01  0.690E-01  0.690E-01
   7.585  0.210E+00  0.701E-01  0.701E-01  0.701E-01
   7.595  0.214E+00  0.713E-01  0.713E-01  0.713E-01
   7.605  0.217E+00  0.724E-01  0.724E-01  0.724E-01
   7.615  0.222E+00  0.741E-01  0.741E-01  0.741E-01
   7.625  0.227E+00  0.756E-01  0.756E-01  0.756E-01
   7.635  0.229E+00  0.763E-01  0.763E-01  0.763E-01
   7.645  0.231E+00  0.770E-01  0.770E-01  0.770E-01
   7.655  0.233E+00  0.777E-01  0.777E-01  0.777E-01
   7.665  0.235E+00  0.784E-01  0.784E-01  0.784E-01
   7.675  0.237E+00  0.790E-01  0.790E-01  0.790E-01
   7.685  0.239E+00  0.797E-01  0.797E-01  0.797E-01
   7.695  0.241E+00  0.804E-01  0.804E-01  0.804E-01
   7.705  0.243E+00  0.810E-01  0.810E-01  0.810E-01
   7.715  0.245E+00  0.817E-01  0.817E-01  0.817E-01
   7.725  0.247E+00  0.823E-01  0.823E-01  0.823E-01
   7.735  0.249E+00  0.830E-01  0.830E-01  0.830E-01
   7.745  0.251E+00  0.836E-01  0.836E-01  0.836E-01
   7.755  0.253E+00  0.842E-01  0.842E-01  0.842E-01
   7.765  0.254E+00  0.848E-01  0.848E-01  0.848E-01
   7.775  0.256E+00  0.854E-01  0.854E-01  0.854E-01
   7.785  0.258E+00  0.860E-01  0.860E-01  0.860E-01
   7.795  0.260E+00  0.865E-01  0.865E-01  0.865E-01
   7.805  0.261E+00  0.871E-01  0.871E-01  0.871E-01
   7.815  0.263E+00  0.877E-01  0.877E-01  0.877E-01
   7.825  0.265E+00  0.882E-01  0.882E-01  0.882E-01
   7.835  0.266E+00  0.887E-01  0.887E-01  0.887E-01
   7.845  0.268E+00  0.894E-01  0.894E-01  0.894E-01
   7.855  0.270E+00  0.900E-01  0.900E-01  0.900E-01
   7.865  0.272E+00  0.906E-01  0.906E-01  0.906E-01
   7.875  0.274E+00  0.912E-01  0.912E-01  0.912E-01
   7.885  0.276E+00  0.919E-01  0.919E-01  0.919E-01
   7.895  0.278E+00  0.928E-01  0.928E-01  0.928E-01
   7.905  0.281E+00  0.938E-01  0.938E-01  0.938E-01
   7.915  0.284E+00  0.948E-01  0.948E-01  0.948E-01
   7.925  0.288E+00  0.959E-01  0.959E-01  0.959E-01
   7.935  0.291E+00  0.970E-01  0.970E-01  0.970E-01
   7.945  0.294E+00  0.981E-01  0.981E-01  0.981E-01
   7.955  0.298E+00  0.992E-01  0.992E-01  0.992E-01
   7.965  0.301E+00  0.100E+00  0.100E+00  0.100E+00
   7.975  0.305E+00  0.102E+00  0.102E+00  0.102E+00
   7.985  0.308E+00  0.103E+00  0.103E+00  0.103E+00
   7.995  0.312E+00  0.104E+00  0.104E+00  0.104E+00
   8.005  0.316E+00  0.105E+00  0.105E+00  0.105E+00
   8.015  0.320E+00  0.107E+00  0.107E+00  0.107E+00
   8.025  0.324E+00  0.108E+00  0.108E+00  0.108E+00
   8.035  0.328E+00  0.109E+00  0.109E+00  0.109E+00
   8.045  0.332E+00  0.111E+00  0.111E+00  0.111E+00
   8.055  0.336E+00  0.112E+00  0.112E+00  0.112E+00
   8.065  0.340E+00  0.113E+00  0.113E+00  0.113E+00
   8.075  0.345E+00  0.115E+00  0.115E+00  0.115E+00
   8.085  0.349E+00  0.116E+00  0.116E+00  0.116E+00
   8.095  0.354E+00  0.118E+00  0.118E+00  0.118E+00
   8.105  0.359E+00  0.120E+00  0.120E+00  0.120E+00
   8.115  0.363E+00  0.121E+00  0.121E+00  0.121E+00
   8.125  0.368E+00  0.123E+00  0.123E+00  0.123E+00
   8.135  0.373E+00  0.124E+00  0.124E+00  0.124E+00
   8.145  0.379E+00  0.126E+00  0.126E+00  0.126E+00
   8.155  0.384E+00  0.128E+00  0.128E+00  0.128E+00
   8.165  0.390E+00  0.130E+00  0.130E+00  0.130E+00
   8.175  0.396E+00  0.132E+00  0.132E+00  0.132E+00
   8.185  0.402E+00  0.134E+00  0.134E+00  0.134E+00
   8.195  0.409E+00  0.136E+00  0.136E+00  0.136E+00
   8.205  0.415E+00  0.138E+00  0.138E+00  0.138E+00
   8.215  0.422E+00  0.141E+00  0.141E+00  0.141E+00
   8.225  0.429E+00  0.143E+00  0.143E+00  0.143E+00
   8.235  0.436E+00  0.145E+00  0.145E+00  0.145E+00
   8.245  0.442E+00  0.147E+00  0.147E+00  0.147E+00
   8.255  0.448E+00  0.149E+00  0.149E+00  0.149E+00
   8.265  0.454E+00  0.151E+00  0.151E+00  0.151E+00
   8.275  0.459E+00  0.153E+00  0.153E+00  0.153E+00
   8.285  0.465E+00  0.155E+00  0.155E+00  0.155E+00
   8.295  0.471E+00  0.157E+00  0.157E+00  0.157E+00
   8.305  0.477E+00  0.159E+00  0.159E+00  0.159E+00
   8.315  0.485E+00  0.162E+00  0.162E+00  0.162E+00
   8.325  0.496E+00  0.165E+00  0.165E+00  0.165E+00
   8.335  0.507E+00  0.169E+00  0.169E+00  0.169E+00
   8.345  0.518E+00  0.173E+00  0.173E+00  0.173E+00
   8.355  0.529E+00  0.176E+00  0.176E+00  0.176E+00
   8.365  0.539E+00  0.180E+00  0.180E+00  0.180E+00
   8.375  0.549E+00  0.183E+00  0.183E+00  0.183E+00
   8.385  0.558E+00  0.186E+00  0.186E+00  0.186E+00
   8.395  0.568E+00  0.189E+00  0.189E+00  0.189E+00
   8.405  0.578E+00  0.193E+00  0.193E+00  0.193E+00
   8.415  0.588E+00  0.196E+00  0.196E+00  0.196E+00
   8.425  0.598E+00  0.199E+00  0.199E+00  0.199E+00
   8.435  0.607E+00  0.202E+00  0.202E+00  0.202E+00
   8.445  0.614E+00  0.205E+00  0.205E+00  0.205E+00
   8.455  0.619E+00  0.206E+00  0.206E+00  0.206E+00
   8.465  0.623E+00  0.208E+00  0.208E+00  0.208E+00
   8.475  0.627E+00  0.209E+00  0.209E+00  0.209E+00
   8.485  0.630E+00  0.210E+00  0.210E+00  0.210E+00
   8.495  0.633E+00  0.211E+00  0.211E+00  0.211E+00
   8.505  0.636E+00  0.212E+00  0.212E+00  0.212E+00
   8.515  0.639E+00  0.213E+00  0.213E+00  0.213E+00
   8.525  0.642E+00  0.214E+00  0.214E+00  0.214E+00
   8.535  0.645E+00  0.215E+00  0.215E+00  0.215E+00
   8.545  0.647E+00  0.216E+00  0.216E+00  0.216E+00
   8.555  0.649E+00  0.216E+00  0.216E+00  0.216E+00
   8.565  0.650E+00  0.217E+00  0.217E+00  0.217E+00
   8.575  0.651E+00  0.217E+00  0.217E+00  0.217E+00
   8.585  0.651E+00  0.217E+00  0.217E+00  0.217E+00
   8.595  0.651E+00  0.217E+00  0.217E+00  0.217E+00
   8.605  0.651E+00  0.217E+00  0.217E+00  0.217E+00
   8.615  0.649E+00  0.216E+00  0.216E+00  0.216E+00
   8.625  0.648E+00  0.216E+00  0.216E+00  0.216E+00
   8.635  0.645E+00  0.215E+00  0.215E+00  0.215E+00
   8.645  0.642E+00  0.214E+00  0.214E+00  0.214E+00
   8.655  0.639E+00  0.213E+00  0.213E+00  0.213E+00
   8.665  0.610E+00  0.203E+00  0.203E+00  0.203E+00
   8.675  0.603E+00  0.201E+00  0.201E+00  0.201E+00
   8.685  0.596E+00  0.199E+00  0.199E+00  0.199E+00
   8.695  0.588E+00  0.196E+00  0.196E+00  0.196E+00
   8.705  0.580E+00  0.193E+00  0.193E+00  0.193E+00
   8.715  0.572E+00  0.191E+00  0.191E+00  0.191E+00
   8.725  0.563E+00  0.188E+00  0.188E+00  0.188E+00
   8.735  0.554E+00  0.185E+00  0.185E+00  0.185E+00
   8.745  0.544E+00  0.181E+00  0.181E+00  0.181E+00
   8.755  0.533E+00  0.178E+00  0.178E+00  0.178E+00
   8.765  0.521E+00  0.174E+00  0.174E+00  0.174E+00
   8.775  0.507E+00  0.169E+00  0.169E+00  0.169E+00
   8.785  0.492E+00  0.164E+00  0.164E+00  0.164E+00
   8.795  0.474E+00  0.158E+00  0.158E+00  0.158E+00
   8.805  0.455E+00  0.152E+00  0.152E+00  0.152E+00
   8.815  0.433E+00  0.144E+00  0.144E+00  0.144E+00
   8.825  0.409E+00  0.136E+00  0.136E+00  0.136E+00
   8.835  0.386E+00  0.129E+00  0.129E+00  0.129E+00
   8.845  0.367E+00  0.122E+00  0.122E+00  0.122E+00
   8.855  0.352E+00  0.117E+00  0.117E+00  0.117E+00
   8.865  0.340E+00  0.113E+00  0.113E+00  0.113E+00
   8.875  0.329E+00  0.110E+00  0.110E+00  0.110E+00
   8.885  0.319E+00  0.106E+00  0.106E+00  0.106E+00
   8.895  0.309E+00  0.103E+00  0.103E+00  0.103E+00
   8.905  0.300E+00  0.100E+00  0.100E+00  0.100E+00
   8.915  0.292E+00  0.972E-01  0.972E-01  0.972E-01
   8.925  0.284E+00  0.946E-01  0.946E-01  0.946E-01
   8.935  0.277E+00  0.923E-01  0.923E-01  0.923E-01
   8.945  0.271E+00  0.902E-01  0.902E-01  0.902E-01
   8.955  0.265E+00  0.883E-01  0.883E-01  0.883E-01
   8.965  0.262E+00  0.873E-01  0.873E-01  0.873E-01
   8.975  0.260E+00  0.867E-01  0.867E-01  0.867E-01
   8.985  0.259E+00  0.862E-01  0.862E-01  0.862E-01
   8.995  0.257E+00  0.858E-01  0.858E-01  0.858E-01
   9.005  0.256E+00  0.854E-01  0.854E-01  0.854E-01
   9.015  0.255E+00  0.851E-01  0.851E-01  0.851E-01
   9.025  0.255E+00  0.848E-01  0.848E-01  0.848E-01
   9.035  0.254E+00  0.846E-01  0.846E-01  0.846E-01
   9.045  0.253E+00  0.844E-01  0.844E-01  0.844E-01
   9.055  0.252E+00  0.841E-01  0.841E-01  0.841E-01
   9.065  0.252E+00  0.839E-01  0.839E-01  0.839E-01
   9.075  0.251E+00  0.836E-01  0.836E-01  0.836E-01
   9.085  0.250E+00  0.834E-01  0.834E-01  0.834E-01
   9.095  0.250E+00  0.832E-01  0.832E-01  0.832E-01
   9.105  0.249E+00  0.831E-01  0.831E-01  0.831E-01
   9.115  0.249E+00  0.830E-01  0.830E-01  0.830E-01
   9.125  0.249E+00  0.830E-01  0.830E-01  0.830E-01
   9.135  0.249E+00  0.831E-01  0.831E-01  0.831E-01
   9.145  0.250E+00  0.833E-01  0.833E-01  0.833E-01
   9.155  0.250E+00  0.835E-01  0.835E-01  0.835E-01
   9.165  0.251E+00  0.838E-01  0.838E-01  0.838E-01
   9.175  0.253E+00  0.844E-01  0.844E-01  0.844E-01
   9.185  0.256E+00  0.852E-01  0.852E-01  0.852E-01
   9.195  0.259E+00  0.863E-01  0.863E-01  0.863E-01
   9.205  0.263E+00  0.876E-01  0.876E-01  0.876E-01
   9.215  0.267E+00  0.892E-01  0.892E-01  0.892E-01
   9.225  0.273E+00  0.910E-01  0.910E-01  0.910E-01
   9.235  0.279E+00  0.931E-01  0.931E-01  0.931E-01
   9.245  0.286E+00  0.955E-01  0.955E-01  0.955E-01
   9.255  0.294E+00  0.981E-01  0.981E-01  0.981E-01
   9.265  0.303E+00  0.101E+00  0.101E+00  0.101E+00
   9.275  0.313E+00  0.104E+00  0.104E+00  0.104E+00
   9.285  0.323E+00  0.108E+00  0.108E+00  0.108E+00
   9.295  0.334E+00  0.111E+00  0.111E+00  0.111E+00
   9.305  0.346E+00  0.115E+00  0.115E+00  0.115E+00
   9.315  0.359E+00  0.120E+00  0.120E+00  0.120E+00
   9.325  0.372E+00  0.124E+00  0.124E+00  0.124E+00
   9.335  0.387E+00  0.129E+00  0.129E+00  0.129E+00
   9.345  0.403E+00  0.134E+00  0.134E+00  0.134E+00
   9.355  0.421E+00  0.140E+00  0.140E+00  0.140E+00
   9.365  0.444E+00  0.148E+00  0.148E+00  0.148E+00
   9.375  0.476E+00  0.159E+00  0.159E+00  0.159E+00
   9.385  0.517E+00  0.172E+00  0.172E+00  0.172E+00
   9.395  0.612E+00  0.204E+00  0.204E+00  0.204E+00
   9.405  0.706E+00  0.235E+00  0.235E+00  0.235E+00
   9.415  0.772E+00  0.257E+00  0.257E+00  0.257E+00
   9.425  0.810E+00  0.270E+00  0.270E+00  0.270E+00
   9.435  0.832E+00  0.277E+00  0.277E+00  0.277E+00
   9.445  0.848E+00  0.283E+00  0.283E+00  0.283E+00
   9.455  0.858E+00  0.286E+00  0.286E+00  0.286E+00
   9.465  0.863E+00  0.288E+00  0.288E+00  0.288E+00
   9.475  0.131E+01  0.435E+00  0.435E+00  0.435E+00
   9.485  0.134E+01  0.446E+00  0.446E+00  0.446E+00
   9.495  0.113E+01  0.376E+00  0.376E+00  0.376E+00
   9.505  0.105E+01  0.351E+00  0.351E+00  0.351E+00
   9.515  0.105E+01  0.349E+00  0.349E+00  0.349E+00
   9.525  0.106E+01  0.355E+00  0.355E+00  0.355E+00
   9.535  0.108E+01  0.360E+00  0.360E+00  0.360E+00
   9.545  0.109E+01  0.363E+00  0.363E+00  0.363E+00
   9.555  0.109E+01  0.364E+00  0.364E+00  0.364E+00
   9.565  0.109E+01  0.365E+00  0.365E+00  0.365E+00
   9.575  0.109E+01  0.363E+00  0.363E+00  0.363E+00
   9.585  0.108E+01  0.360E+00  0.360E+00  0.360E+00
   9.595  0.107E+01  0.356E+00  0.356E+00  0.356E+00
   9.605  0.105E+01  0.350E+00  0.350E+00  0.350E+00
   9.615  0.103E+01  0.343E+00  0.343E+00  0.343E+00
   9.625  0.100E+01  0.334E+00  0.334E+00  0.334E+00
   9.635  0.973E+00  0.324E+00  0.324E+00  0.324E+00
   9.645  0.945E+00  0.315E+00  0.315E+00  0.315E+00
   9.655  0.919E+00  0.306E+00  0.306E+00  0.306E+00
   9.665  0.894E+00  0.298E+00  0.298E+00  0.298E+00
   9.675  0.870E+00  0.290E+00  0.290E+00  0.290E+00
   9.685  0.848E+00  0.283E+00  0.283E+00  0.283E+00
   9.695  0.826E+00  0.275E+00  0.275E+00  0.275E+00
   9.705  0.809E+00  0.270E+00  0.270E+00  0.270E+00
   9.715  0.803E+00  0.268E+00  0.268E+00  0.268E+00
   9.725  0.793E+00  0.264E+00  0.264E+00  0.264E+00
   9.735  0.782E+00  0.261E+00  0.261E+00  0.261E+00
   9.745  0.769E+00  0.256E+00  0.256E+00  0.256E+00
   9.755  0.762E+00  0.254E+00  0.254E+00  0.254E+00
   9.765  0.762E+00  0.254E+00  0.254E+00  0.254E+00
   9.775  0.768E+00  0.256E+00  0.256E+00  0.256E+00
   9.785  0.778E+00  0.259E+00  0.259E+00  0.259E+00
   9.795  0.794E+00  0.265E+00  0.265E+00  0.265E+00
   9.805  0.817E+00  0.272E+00  0.272E+00  0.272E+00
   9.815  0.754E+00  0.251E+00  0.251E+00  0.251E+00
   9.825  0.697E+00  0.232E+00  0.232E+00  0.232E+00
   9.835  0.685E+00  0.228E+00  0.228E+00  0.228E+00
   9.845  0.673E+00  0.224E+00  0.224E+00  0.224E+00
   9.855  0.661E+00  0.220E+00  0.220E+00  0.220E+00
   9.865  0.649E+00  0.216E+00  0.216E+00  0.216E+00
   9.875  0.638E+00  0.213E+00  0.213E+00  0.213E+00
   9.885  0.627E+00  0.209E+00  0.209E+00  0.209E+00
   9.895  0.617E+00  0.206E+00  0.206E+00  0.206E+00
   9.905  0.606E+00  0.202E+00  0.202E+00  0.202E+00
   9.915  0.596E+00  0.199E+00  0.199E+00  0.199E+00
   9.925  0.587E+00  0.196E+00  0.196E+00  0.196E+00
   9.935  0.579E+00  0.193E+00  0.193E+00  0.193E+00
   9.945  0.572E+00  0.191E+00  0.191E+00  0.191E+00
   9.955  0.566E+00  0.189E+00  0.189E+00  0.189E+00
   9.965  0.560E+00  0.187E+00  0.187E+00  0.187E+00
   9.975  0.554E+00  0.185E+00  0.185E+00  0.185E+00
   9.985  0.548E+00  0.183E+00  0.183E+00  0.183E+00
   9.995  0.543E+00  0.181E+00  0.181E+00  0.181E+00
  10.005  0.537E+00  0.179E+00  0.179E+00  0.179E+00
  10.015  0.532E+00  0.177E+00  0.177E+00  0.177E+00
  10.025  0.527E+00  0.176E+00  0.176E+00  0.176E+00
  10.035  0.522E+00  0.174E+00  0.174E+00  0.174E+00
  10.045  0.518E+00  0.173E+00  0.173E+00  0.173E+00
  10.055  0.513E+00  0.171E+00  0.171E+00  0.171E+00
  10.065  0.509E+00  0.170E+00  0.170E+00  0.170E+00
  10.075  0.506E+00  0.169E+00  0.169E+00  0.169E+00
  10.085  0.502E+00  0.167E+00  0.167E+00  0.167E+00
  10.095  0.499E+00  0.166E+00  0.166E+00  0.166E+00
  10.105  0.496E+00  0.165E+00  0.165E+00  0.165E+00
  10.115  0.493E+00  0.164E+00  0.164E+00  0.164E+00
  10.125  0.490E+00  0.163E+00  0.163E+00  0.163E+00
  10.135  0.487E+00  0.162E+00  0.162E+00  0.162E+00
  10.145  0.484E+00  0.161E+00  0.161E+00  0.161E+00
  10.155  0.481E+00  0.160E+00  0.160E+00  0.160E+00
  10.165  0.478E+00  0.159E+00  0.159E+00  0.159E+00
  10.175  0.475E+00  0.158E+00  0.158E+00  0.158E+00
  10.185  0.472E+00  0.157E+00  0.157E+00  0.157E+00
  10.195  0.470E+00  0.157E+00  0.157E+00  0.157E+00
  10.205  0.467E+00  0.156E+00  0.156E+00  0.156E+00
  10.215  0.464E+00  0.155E+00  0.155E+00  0.155E+00
  10.225  0.461E+00  0.154E+00  0.154E+00  0.154E+00
  10.235  0.458E+00  0.153E+00  0.153E+00  0.153E+00
  10.245  0.455E+00  0.152E+00  0.152E+00  0.152E+00
  10.255  0.452E+00  0.151E+00  0.151E+00  0.151E+00
  10.265  0.448E+00  0.149E+00  0.149E+00  0.149E+00
  10.275  0.445E+00  0.148E+00  0.148E+00  0.148E+00
  10.285  0.441E+00  0.147E+00  0.147E+00  0.147E+00
  10.295  0.437E+00  0.146E+00  0.146E+00  0.146E+00
  10.305  0.434E+00  0.145E+00  0.145E+00  0.145E+00
  10.315  0.430E+00  0.143E+00  0.143E+00  0.143E+00
  10.325  0.425E+00  0.142E+00  0.142E+00  0.142E+00
  10.335  0.421E+00  0.140E+00  0.140E+00  0.140E+00
  10.345  0.417E+00  0.139E+00  0.139E+00  0.139E+00
  10.355  0.412E+00  0.137E+00  0.137E+00  0.137E+00
  10.365  0.407E+00  0.136E+00  0.136E+00  0.136E+00
  10.375  0.403E+00  0.134E+00  0.134E+00  0.134E+00
  10.385  0.398E+00  0.133E+00  0.133E+00  0.133E+00
  10.395  0.392E+00  0.131E+00  0.131E+00  0.131E+00
  10.405  0.387E+00  0.129E+00  0.129E+00  0.129E+00
  10.415  0.382E+00  0.127E+00  0.127E+00  0.127E+00
  10.425  0.377E+00  0.126E+00  0.126E+00  0.126E+00
  10.435  0.372E+00  0.124E+00  0.124E+00  0.124E+00
  10.445  0.369E+00  0.123E+00  0.123E+00  0.123E+00
  10.455  0.368E+00  0.123E+00  0.123E+00  0.123E+00
  10.465  0.368E+00  0.123E+00  0.123E+00  0.123E+00
  10.475  0.368E+00  0.123E+00  0.123E+00  0.123E+00
  10.485  0.367E+00  0.122E+00  0.122E+00  0.122E+00
  10.495  0.367E+00  0.122E+00  0.122E+00  0.122E+00
  10.505  0.367E+00  0.122E+00  0.122E+00  0.122E+00
  10.515  0.368E+00  0.123E+00  0.123E+00  0.123E+00
  10.525  0.368E+00  0.123E+00  0.123E+00  0.123E+00
  10.535  0.369E+00  0.123E+00  0.123E+00  0.123E+00
  10.545  0.370E+00  0.123E+00  0.123E+00  0.123E+00
  10.555  0.371E+00  0.124E+00  0.124E+00  0.124E+00
  10.565  0.372E+00  0.124E+00  0.124E+00  0.124E+00
  10.575  0.373E+00  0.124E+00  0.124E+00  0.124E+00
  10.585  0.375E+00  0.125E+00  0.125E+00  0.125E+00
  10.595  0.376E+00  0.125E+00  0.125E+00  0.125E+00
  10.605  0.378E+00  0.126E+00  0.126E+00  0.126E+00
  10.615  0.380E+00  0.127E+00  0.127E+00  0.127E+00
  10.625  0.382E+00  0.127E+00  0.127E+00  0.127E+00
  10.635  0.385E+00  0.128E+00  0.128E+00  0.128E+00
  10.645  0.387E+00  0.129E+00  0.129E+00  0.129E+00
  10.655  0.390E+00  0.130E+00  0.130E+00  0.130E+00
  10.665  0.394E+00  0.131E+00  0.131E+00  0.131E+00
  10.675  0.397E+00  0.132E+00  0.132E+00  0.132E+00
  10.685  0.398E+00  0.133E+00  0.133E+00  0.133E+00
  10.695  0.396E+00  0.132E+00  0.132E+00  0.132E+00
  10.705  0.394E+00  0.131E+00  0.131E+00  0.131E+00
  10.715  0.392E+00  0.131E+00  0.131E+00  0.131E+00
  10.725  0.389E+00  0.130E+00  0.130E+00  0.130E+00
  10.735  0.387E+00  0.129E+00  0.129E+00  0.129E+00
  10.745  0.385E+00  0.128E+00  0.128E+00  0.128E+00
  10.755  0.382E+00  0.127E+00  0.127E+00  0.127E+00
  10.765  0.380E+00  0.127E+00  0.127E+00  0.127E+00
  10.775  0.374E+00  0.125E+00  0.125E+00  0.125E+00
  10.785  0.379E+00  0.126E+00  0.126E+00  0.126E+00
  10.795  0.385E+00  0.128E+00  0.128E+00  0.128E+00
  10.805  0.391E+00  0.130E+00  0.130E+00  0.130E+00
  10.815  0.397E+00  0.132E+00  0.132E+00  0.132E+00
  10.825  0.401E+00  0.134E+00  0.134E+00  0.134E+00
  10.835  0.405E+00  0.135E+00  0.135E+00  0.135E+00
  10.845  0.408E+00  0.136E+00  0.136E+00  0.136E+00
  10.855  0.411E+00  0.137E+00  0.137E+00  0.137E+00
  10.865  0.413E+00  0.138E+00  0.138E+00  0.138E+00
  10.875  0.414E+00  0.138E+00  0.138E+00  0.138E+00
  10.885  0.416E+00  0.139E+00  0.139E+00  0.139E+00
  10.895  0.416E+00  0.139E+00  0.139E+00  0.139E+00
  10.905  0.417E+00  0.139E+00  0.139E+00  0.139E+00
  10.915  0.418E+00  0.139E+00  0.139E+00  0.139E+00
  10.925  0.418E+00  0.139E+00  0.139E+00  0.139E+00
  10.935  0.419E+00  0.140E+00  0.140E+00  0.140E+00
  10.945  0.419E+00  0.140E+00  0.140E+00  0.140E+00
  10.955  0.420E+00  0.140E+00  0.140E+00  0.140E+00
  10.965  0.421E+00  0.140E+00  0.140E+00  0.140E+00
  10.975  0.422E+00  0.141E+00  0.141E+00  0.141E+00
  10.985  0.423E+00  0.141E+00  0.141E+00  0.141E+00
  10.995  0.425E+00  0.142E+00  0.142E+00  0.142E+00
  11.005  0.426E+00  0.142E+00  0.142E+00  0.142E+00
  11.015  0.426E+00  0.142E+00  0.142E+00  0.142E+00
  11.025  0.423E+00  0.141E+00  0.141E+00  0.141E+00
  11.035  0.417E+00  0.139E+00  0.139E+00  0.139E+00
  11.045  0.410E+00  0.137E+00  0.137E+00  0.137E+00
  11.055  0.402E+00  0.134E+00  0.134E+00  0.134E+00
  11.065  0.399E+00  0.133E+00  0.133E+00  0.133E+00
  11.075  0.396E+00  0.132E+00  0.132E+00  0.132E+00
  11.085  0.392E+00  0.131E+00  0.131E+00  0.131E+00
  11.095  0.388E+00  0.129E+00  0.129E+00  0.129E+00
  11.105  0.383E+00  0.128E+00  0.128E+00  0.128E+00
  11.115  0.379E+00  0.126E+00  0.126E+00  0.126E+00
  11.125  0.374E+00  0.125E+00  0.125E+00  0.125E+00
  11.135  0.370E+00  0.123E+00  0.123E+00  0.123E+00
  11.145  0.367E+00  0.122E+00  0.122E+00  0.122E+00
  11.155  0.364E+00  0.121E+00  0.121E+00  0.121E+00
  11.165  0.360E+00  0.120E+00  0.120E+00  0.120E+00
  11.175  0.356E+00  0.119E+00  0.119E+00  0.119E+00
  11.185  0.352E+00  0.117E+00  0.117E+00  0.117E+00
  11.195  0.347E+00  0.116E+00  0.116E+00  0.116E+00
  11.205  0.343E+00  0.114E+00  0.114E+00  0.114E+00
  11.215  0.339E+00  0.113E+00  0.113E+00  0.113E+00
  11.225  0.336E+00  0.112E+00  0.112E+00  0.112E+00
  11.235  0.333E+00  0.111E+00  0.111E+00  0.111E+00
  11.245  0.331E+00  0.110E+00  0.110E+00  0.110E+00
  11.255  0.326E+00  0.109E+00  0.109E+00  0.109E+00
  11.265  0.320E+00  0.107E+00  0.107E+00  0.107E+00
  11.275  0.316E+00  0.105E+00  0.105E+00  0.105E+00
  11.285  0.313E+00  0.104E+00  0.104E+00  0.104E+00
  11.295  0.310E+00  0.103E+00  0.103E+00  0.103E+00
  11.305  0.309E+00  0.103E+00  0.103E+00  0.103E+00
  11.315  0.307E+00  0.102E+00  0.102E+00  0.102E+00
  11.325  0.305E+00  0.102E+00  0.102E+00  0.102E+00
  11.335  0.304E+00  0.101E+00  0.101E+00  0.101E+00
  11.345  0.303E+00  0.101E+00  0.101E+00  0.101E+00
  11.355  0.302E+00  0.101E+00  0.101E+00  0.101E+00
  11.365  0.301E+00  0.100E+00  0.100E+00  0.100E+00
  11.375  0.300E+00  0.999E-01  0.999E-01  0.999E-01
  11.385  0.299E+00  0.997E-01  0.997E-01  0.997E-01
  11.395  0.298E+00  0.994E-01  0.994E-01  0.994E-01
  11.405  0.297E+00  0.991E-01  0.991E-01  0.991E-01
  11.415  0.296E+00  0.987E-01  0.987E-01  0.987E-01
  11.425  0.295E+00  0.983E-01  0.983E-01  0.983E-01
  11.435  0.293E+00  0.978E-01  0.978E-01  0.978E-01
  11.445  0.292E+00  0.972E-01  0.972E-01  0.972E-01
  11.455  0.290E+00  0.966E-01  0.966E-01  0.966E-01
  11.465  0.288E+00  0.959E-01  0.959E-01  0.959E-01
  11.475  0.286E+00  0.952E-01  0.952E-01  0.952E-01
  11.485  0.284E+00  0.946E-01  0.946E-01  0.946E-01
  11.495  0.282E+00  0.939E-01  0.939E-01  0.939E-01
  11.505  0.280E+00  0.933E-01  0.933E-01  0.933E-01
  11.515  0.278E+00  0.927E-01  0.927E-01  0.927E-01
  11.525  0.276E+00  0.921E-01  0.921E-01  0.921E-01
  11.535  0.274E+00  0.915E-01  0.915E-01  0.915E-01
  11.545  0.273E+00  0.911E-01  0.911E-01  0.911E-01
  11.555  0.273E+00  0.910E-01  0.910E-01  0.910E-01
  11.565  0.274E+00  0.914E-01  0.914E-01  0.914E-01
  11.575  0.276E+00  0.921E-01  0.921E-01  0.921E-01
  11.585  0.278E+00  0.927E-01  0.927E-01  0.927E-01
  11.595  0.275E+00  0.917E-01  0.917E-01  0.917E-01
  11.605  0.272E+00  0.907E-01  0.907E-01  0.907E-01
  11.615  0.269E+00  0.898E-01  0.898E-01  0.898E-01
  11.625  0.266E+00  0.888E-01  0.888E-01  0.888E-01
  11.635  0.264E+00  0.879E-01  0.879E-01  0.879E-01
  11.645  0.261E+00  0.871E-01  0.871E-01  0.871E-01
  11.655  0.259E+00  0.862E-01  0.862E-01  0.862E-01
  11.665  0.256E+00  0.854E-01  0.854E-01  0.854E-01
  11.675  0.254E+00  0.846E-01  0.846E-01  0.846E-01
  11.685  0.251E+00  0.838E-01  0.838E-01  0.838E-01
  11.695  0.249E+00  0.830E-01  0.830E-01  0.830E-01
  11.705  0.247E+00  0.823E-01  0.823E-01  0.823E-01
  11.715  0.245E+00  0.815E-01  0.815E-01  0.815E-01
  11.725  0.243E+00  0.808E-01  0.808E-01  0.808E-01
  11.735  0.240E+00  0.802E-01  0.802E-01  0.802E-01
  11.745  0.238E+00  0.795E-01  0.795E-01  0.795E-01
  11.755  0.236E+00  0.788E-01  0.788E-01  0.788E-01
  11.765  0.234E+00  0.781E-01  0.781E-01  0.781E-01
  11.775  0.232E+00  0.775E-01  0.775E-01  0.775E-01
  11.785  0.230E+00  0.768E-01  0.768E-01  0.768E-01
  11.795  0.229E+00  0.762E-01  0.762E-01  0.762E-01
  11.805  0.227E+00  0.755E-01  0.755E-01  0.755E-01
  11.815  0.225E+00  0.749E-01  0.749E-01  0.749E-01
  11.825  0.223E+00  0.743E-01  0.743E-01  0.743E-01
  11.835  0.221E+00  0.737E-01  0.737E-01  0.737E-01
  11.845  0.219E+00  0.731E-01  0.731E-01  0.731E-01
  11.855  0.218E+00  0.725E-01  0.725E-01  0.725E-01
  11.865  0.216E+00  0.719E-01  0.719E-01  0.719E-01
  11.875  0.214E+00  0.713E-01  0.713E-01  0.713E-01
  11.885  0.212E+00  0.707E-01  0.707E-01  0.707E-01
  11.895  0.210E+00  0.702E-01  0.702E-01  0.702E-01
  11.905  0.209E+00  0.696E-01  0.696E-01  0.696E-01
  11.915  0.207E+00  0.690E-01  0.690E-01  0.690E-01
  11.925  0.211E+00  0.704E-01  0.704E-01  0.704E-01
  11.935  0.227E+00  0.757E-01  0.757E-01  0.757E-01
  11.945  0.238E+00  0.795E-01  0.795E-01  0.795E-01
  11.955  0.245E+00  0.817E-01  0.817E-01  0.817E-01
  11.965  0.247E+00  0.823E-01  0.823E-01  0.823E-01
  11.975  0.244E+00  0.812E-01  0.812E-01  0.812E-01
  11.985  0.236E+00  0.786E-01  0.786E-01  0.786E-01
  11.995  0.223E+00  0.743E-01  0.743E-01  0.743E-01
  12.005  0.208E+00  0.692E-01  0.692E-01  0.692E-01
  12.015  0.206E+00  0.687E-01  0.687E-01  0.687E-01
  12.025  0.228E+00  0.759E-01  0.759E-01  0.759E-01
  12.035  0.247E+00  0.824E-01  0.824E-01  0.824E-01
  12.045  0.245E+00  0.816E-01  0.816E-01  0.816E-01
  12.055  0.236E+00  0.787E-01  0.787E-01  0.787E-01
  12.065  0.228E+00  0.760E-01  0.760E-01  0.760E-01
  12.075  0.221E+00  0.737E-01  0.737E-01  0.737E-01
  12.085  0.215E+00  0.717E-01  0.717E-01  0.717E-01
  12.095  0.210E+00  0.701E-01  0.701E-01  0.701E-01
  12.105  0.207E+00  0.690E-01  0.690E-01  0.690E-01
  12.115  0.205E+00  0.684E-01  0.684E-01  0.684E-01
  12.125  0.204E+00  0.679E-01  0.679E-01  0.679E-01
  12.135  0.202E+00  0.674E-01  0.674E-01  0.674E-01
  12.145  0.201E+00  0.670E-01  0.670E-01  0.670E-01
  12.155  0.200E+00  0.666E-01  0.666E-01  0.666E-01
  12.165  0.199E+00  0.662E-01  0.662E-01  0.662E-01
  12.175  0.198E+00  0.658E-01  0.658E-01  0.658E-01
  12.185  0.197E+00  0.655E-01  0.655E-01  0.655E-01
  12.195  0.196E+00  0.652E-01  0.652E-01  0.652E-01
  12.205  0.195E+00  0.649E-01  0.649E-01  0.649E-01
  12.215  0.194E+00  0.646E-01  0.646E-01  0.646E-01
  12.225  0.193E+00  0.644E-01  0.644E-01  0.644E-01
  12.235  0.193E+00  0.642E-01  0.642E-01  0.642E-01
  12.245  0.192E+00  0.640E-01  0.640E-01  0.640E-01
  12.255  0.191E+00  0.638E-01  0.638E-01  0.638E-01
  12.265  0.191E+00  0.637E-01  0.637E-01  0.637E-01
  12.275  0.191E+00  0.635E-01  0.635E-01  0.635E-01
  12.285  0.190E+00  0.634E-01  0.634E-01  0.634E-01
  12.295  0.190E+00  0.634E-01  0.634E-01  0.634E-01
  12.305  0.190E+00  0.633E-01  0.633E-01  0.633E-01
  12.315  0.190E+00  0.633E-01  0.633E-01  0.633E-01
  12.325  0.190E+00  0.633E-01  0.633E-01  0.633E-01
  12.335  0.190E+00  0.633E-01  0.633E-01  0.633E-01
  12.345  0.190E+00  0.633E-01  0.633E-01  0.633E-01
  12.355  0.190E+00  0.634E-01  0.634E-01  0.634E-01
  12.365  0.190E+00  0.635E-01  0.635E-01  0.635E-01
  12.375  0.191E+00  0.636E-01  0.636E-01  0.636E-01
  12.385  0.191E+00  0.637E-01  0.637E-01  0.637E-01
  12.395  0.192E+00  0.639E-01  0.639E-01  0.639E-01
  12.405  0.192E+00  0.642E-01  0.642E-01  0.642E-01
  12.415  0.193E+00  0.644E-01  0.644E-01  0.644E-01
  12.425  0.194E+00  0.647E-01  0.647E-01  0.647E-01
  12.435  0.195E+00  0.650E-01  0.650E-01  0.650E-01
  12.445  0.196E+00  0.655E-01  0.655E-01  0.655E-01
  12.455  0.198E+00  0.659E-01  0.659E-01  0.659E-01
  12.465  0.199E+00  0.664E-01  0.664E-01  0.664E-01
  12.475  0.201E+00  0.669E-01  0.669E-01  0.669E-01
  12.485  0.202E+00  0.675E-01  0.675E-01  0.675E-01
  12.495  0.204E+00  0.681E-01  0.681E-01  0.681E-01
  12.505  0.206E+00  0.687E-01  0.687E-01  0.687E-01
  12.515  0.208E+00  0.694E-01  0.694E-01  0.694E-01
  12.525  0.211E+00  0.702E-01  0.702E-01  0.702E-01
  12.535  0.213E+00  0.711E-01  0.711E-01  0.711E-01
  12.545  0.216E+00  0.719E-01  0.719E-01  0.719E-01
  12.555  0.219E+00  0.729E-01  0.729E-01  0.729E-01
  12.565  0.221E+00  0.738E-01  0.738E-01  0.738E-01
  12.575  0.224E+00  0.748E-01  0.748E-01  0.748E-01
  12.585  0.227E+00  0.757E-01  0.757E-01  0.757E-01
  12.595  0.230E+00  0.768E-01  0.768E-01  0.768E-01
  12.605  0.234E+00  0.778E-01  0.778E-01  0.778E-01
  12.615  0.237E+00  0.789E-01  0.789E-01  0.789E-01
  12.625  0.240E+00  0.800E-01  0.800E-01  0.800E-01
  12.635  0.244E+00  0.812E-01  0.812E-01  0.812E-01
  12.645  0.247E+00  0.824E-01  0.824E-01  0.824E-01
  12.655  0.251E+00  0.836E-01  0.836E-01  0.836E-01
  12.665  0.255E+00  0.848E-01  0.848E-01  0.848E-01
  12.675  0.258E+00  0.861E-01  0.861E-01  0.861E-01
  12.685  0.262E+00  0.874E-01  0.874E-01  0.874E-01
  12.695  0.266E+00  0.888E-01  0.888E-01  0.888E-01
  12.705  0.269E+00  0.898E-01  0.898E-01  0.898E-01
  12.715  0.271E+00  0.904E-01  0.904E-01  0.904E-01
  12.725  0.273E+00  0.910E-01  0.910E-01  0.910E-01
  12.735  0.275E+00  0.916E-01  0.916E-01  0.916E-01
  12.745  0.276E+00  0.920E-01  0.920E-01  0.920E-01
  12.755  0.277E+00  0.924E-01  0.924E-01  0.924E-01
  12.765  0.278E+00  0.926E-01  0.926E-01  0.926E-01
  12.775  0.278E+00  0.927E-01  0.927E-01  0.927E-01
  12.785  0.278E+00  0.926E-01  0.926E-01  0.926E-01
  12.795  0.277E+00  0.922E-01  0.922E-01  0.922E-01
  12.805  0.275E+00  0.918E-01  0.918E-01  0.918E-01
  12.815  0.273E+00  0.911E-01  0.911E-01  0.911E-01
  12.825  0.267E+00  0.890E-01  0.890E-01  0.890E-01
  12.835  0.262E+00  0.872E-01  0.872E-01  0.872E-01
  12.845  0.257E+00  0.856E-01  0.856E-01  0.856E-01
  12.855  0.252E+00  0.841E-01  0.841E-01  0.841E-01
  12.865  0.249E+00  0.829E-01  0.829E-01  0.829E-01
  12.875  0.245E+00  0.818E-01  0.818E-01  0.818E-01
  12.885  0.243E+00  0.809E-01  0.809E-01  0.809E-01
  12.895  0.240E+00  0.801E-01  0.801E-01  0.801E-01
  12.905  0.238E+00  0.794E-01  0.794E-01  0.794E-01
  12.915  0.237E+00  0.789E-01  0.789E-01  0.789E-01
  12.925  0.235E+00  0.783E-01  0.783E-01  0.783E-01
  12.935  0.233E+00  0.777E-01  0.777E-01  0.777E-01
  12.945  0.231E+00  0.771E-01  0.771E-01  0.771E-01
  12.955  0.229E+00  0.764E-01  0.764E-01  0.764E-01
  12.965  0.227E+00  0.757E-01  0.757E-01  0.757E-01
  12.975  0.225E+00  0.749E-01  0.749E-01  0.749E-01
  12.985  0.223E+00  0.742E-01  0.742E-01  0.742E-01
  12.995  0.220E+00  0.734E-01  0.734E-01  0.734E-01
  13.005  0.218E+00  0.727E-01  0.727E-01  0.727E-01
  13.015  0.216E+00  0.720E-01  0.720E-01  0.720E-01
  13.025  0.214E+00  0.712E-01  0.712E-01  0.712E-01
  13.035  0.212E+00  0.706E-01  0.706E-01  0.706E-01
  13.045  0.210E+00  0.699E-01  0.699E-01  0.699E-01
  13.055  0.208E+00  0.693E-01  0.693E-01  0.693E-01
  13.065  0.206E+00  0.686E-01  0.686E-01  0.686E-01
  13.075  0.204E+00  0.680E-01  0.680E-01  0.680E-01
  13.085  0.202E+00  0.673E-01  0.673E-01  0.673E-01
  13.095  0.200E+00  0.667E-01  0.667E-01  0.667E-01
  13.105  0.198E+00  0.660E-01  0.660E-01  0.660E-01
  13.115  0.196E+00  0.653E-01  0.653E-01  0.653E-01
  13.125  0.194E+00  0.647E-01  0.647E-01  0.647E-01
  13.135  0.192E+00  0.640E-01  0.640E-01  0.640E-01
  13.145  0.190E+00  0.633E-01  0.633E-01  0.633E-01
  13.155  0.188E+00  0.627E-01  0.627E-01  0.627E-01
  13.165  0.186E+00  0.620E-01  0.620E-01  0.620E-01
  13.175  0.184E+00  0.614E-01  0.614E-01  0.614E-01
  13.185  0.182E+00  0.608E-01  0.608E-01  0.608E-01
  13.195  0.181E+00  0.603E-01  0.603E-01  0.603E-01
  13.205  0.179E+00  0.597E-01  0.597E-01  0.597E-01
  13.215  0.178E+00  0.592E-01  0.592E-01  0.592E-01
  13.225  0.176E+00  0.586E-01  0.586E-01  0.586E-01
  13.235  0.174E+00  0.581E-01  0.581E-01  0.581E-01
  13.245  0.173E+00  0.576E-01  0.576E-01  0.576E-01
  13.255  0.171E+00  0.570E-01  0.570E-01  0.570E-01
  13.265  0.170E+00  0.565E-01  0.565E-01  0.565E-01
  13.275  0.168E+00  0.560E-01  0.560E-01  0.560E-01
  13.285  0.166E+00  0.555E-01  0.555E-01  0.555E-01
  13.295  0.165E+00  0.550E-01  0.550E-01  0.550E-01
  13.305  0.163E+00  0.544E-01  0.544E-01  0.544E-01
  13.315  0.162E+00  0.539E-01  0.539E-01  0.539E-01
  13.325  0.160E+00  0.534E-01  0.534E-01  0.534E-01
  13.335  0.159E+00  0.529E-01  0.529E-01  0.529E-01
  13.345  0.157E+00  0.524E-01  0.524E-01  0.524E-01
  13.355  0.156E+00  0.519E-01  0.519E-01  0.519E-01
  13.365  0.154E+00  0.514E-01  0.514E-01  0.514E-01
  13.375  0.153E+00  0.509E-01  0.509E-01  0.509E-01
  13.385  0.151E+00  0.505E-01  0.505E-01  0.505E-01
  13.395  0.150E+00  0.500E-01  0.500E-01  0.500E-01
  13.405  0.148E+00  0.495E-01  0.495E-01  0.495E-01
  13.415  0.147E+00  0.490E-01  0.490E-01  0.490E-01
  13.425  0.146E+00  0.485E-01  0.485E-01  0.485E-01
  13.435  0.144E+00  0.480E-01  0.480E-01  0.480E-01
  13.445  0.143E+00  0.476E-01  0.476E-01  0.476E-01
  13.455  0.141E+00  0.471E-01  0.471E-01  0.471E-01
  13.465  0.140E+00  0.466E-01  0.466E-01  0.466E-01
  13.475  0.138E+00  0.462E-01  0.462E-01  0.462E-01
  13.485  0.137E+00  0.457E-01  0.457E-01  0.457E-01
  13.495  0.136E+00  0.452E-01  0.452E-01  0.452E-01
  13.505  0.134E+00  0.448E-01  0.448E-01  0.448E-01
  13.515  0.133E+00  0.443E-01  0.443E-01  0.443E-01
  13.525  0.132E+00  0.439E-01  0.439E-01  0.439E-01
  13.535  0.130E+00  0.434E-01  0.434E-01  0.434E-01
  13.545  0.129E+00  0.429E-01  0.429E-01  0.429E-01
  13.555  0.127E+00  0.425E-01  0.425E-01  0.425E-01
  13.565  0.126E+00  0.420E-01  0.420E-01  0.420E-01
  13.575  0.125E+00  0.416E-01  0.416E-01  0.416E-01
  13.585  0.123E+00  0.411E-01  0.411E-01  0.411E-01
  13.595  0.122E+00  0.407E-01  0.407E-01  0.407E-01
  13.605  0.121E+00  0.402E-01  0.402E-01  0.402E-01
  13.615  0.119E+00  0.398E-01  0.398E-01  0.398E-01
  13.625  0.118E+00  0.394E-01  0.394E-01  0.394E-01
  13.635  0.117E+00  0.389E-01  0.389E-01  0.389E-01
  13.645  0.115E+00  0.385E-01  0.385E-01  0.385E-01
  13.655  0.114E+00  0.381E-01  0.381E-01  0.381E-01
  13.665  0.113E+00  0.377E-01  0.377E-01  0.377E-01
  13.675  0.112E+00  0.374E-01  0.374E-01  0.374E-01
  13.685  0.112E+00  0.374E-01  0.374E-01  0.374E-01
  13.695  0.113E+00  0.376E-01  0.376E-01  0.376E-01
  13.705  0.114E+00  0.380E-01  0.380E-01  0.380E-01
  13.715  0.116E+00  0.387E-01  0.387E-01  0.387E-01
  13.725  0.119E+00  0.396E-01  0.396E-01  0.396E-01
  13.735  0.122E+00  0.407E-01  0.407E-01  0.407E-01
  13.745  0.126E+00  0.421E-01  0.421E-01  0.421E-01
  13.755  0.131E+00  0.438E-01  0.438E-01  0.438E-01
  13.765  0.137E+00  0.457E-01  0.457E-01  0.457E-01
  13.775  0.143E+00  0.478E-01  0.478E-01  0.478E-01
  13.785  0.151E+00  0.502E-01  0.502E-01  0.502E-01
  13.795  0.158E+00  0.526E-01  0.526E-01  0.526E-01
  13.805  0.164E+00  0.545E-01  0.545E-01  0.545E-01
  13.815  0.168E+00  0.559E-01  0.559E-01  0.559E-01
  13.825  0.178E+00  0.593E-01  0.593E-01  0.593E-01
  13.835  0.192E+00  0.641E-01  0.641E-01  0.641E-01
  13.845  0.195E+00  0.652E-01  0.652E-01  0.652E-01
  13.855  0.189E+00  0.629E-01  0.629E-01  0.629E-01
  13.865  0.177E+00  0.592E-01  0.592E-01  0.592E-01
  13.875  0.167E+00  0.555E-01  0.555E-01  0.555E-01
  13.885  0.156E+00  0.520E-01  0.520E-01  0.520E-01
  13.895  0.146E+00  0.487E-01  0.487E-01  0.487E-01
  13.905  0.137E+00  0.455E-01  0.455E-01  0.455E-01
  13.915  0.128E+00  0.425E-01  0.425E-01  0.425E-01
  13.925  0.119E+00  0.397E-01  0.397E-01  0.397E-01
  13.935  0.111E+00  0.371E-01  0.371E-01  0.371E-01
  13.945  0.104E+00  0.346E-01  0.346E-01  0.346E-01
  13.955  0.970E-01  0.323E-01  0.323E-01  0.323E-01
  13.965  0.908E-01  0.303E-01  0.303E-01  0.303E-01
  13.975  0.852E-01  0.284E-01  0.284E-01  0.284E-01
  13.985  0.802E-01  0.267E-01  0.267E-01  0.267E-01
  13.995  0.758E-01  0.253E-01  0.253E-01  0.253E-01
  14.005  0.721E-01  0.240E-01  0.240E-01  0.240E-01
  14.015  0.690E-01  0.230E-01  0.230E-01  0.230E-01
  14.025  0.665E-01  0.222E-01  0.222E-01  0.222E-01
  14.035  0.648E-01  0.216E-01  0.216E-01  0.216E-01
  14.045  0.638E-01  0.213E-01  0.213E-01  0.213E-01
  14.055  0.634E-01  0.211E-01  0.211E-01  0.211E-01
  14.065  0.631E-01  0.210E-01  0.210E-01  0.210E-01
  14.075  0.629E-01  0.210E-01  0.210E-01  0.210E-01
  14.085  0.627E-01  0.209E-01  0.209E-01  0.209E-01
  14.095  0.625E-01  0.208E-01  0.208E-01  0.208E-01
  14.105  0.623E-01  0.208E-01  0.208E-01  0.208E-01
  14.115  0.622E-01  0.207E-01  0.207E-01  0.207E-01
  14.125  0.620E-01  0.207E-01  0.207E-01  0.207E-01
  14.135  0.619E-01  0.206E-01  0.206E-01  0.206E-01
  14.145  0.617E-01  0.206E-01  0.206E-01  0.206E-01
  14.155  0.616E-01  0.205E-01  0.205E-01  0.205E-01
  14.165  0.616E-01  0.205E-01  0.205E-01  0.205E-01
  14.175  0.615E-01  0.205E-01  0.205E-01  0.205E-01
  14.185  0.614E-01  0.205E-01  0.205E-01  0.205E-01
  14.195  0.614E-01  0.205E-01  0.205E-01  0.205E-01
  14.205  0.614E-01  0.205E-01  0.205E-01  0.205E-01
  14.215  0.614E-01  0.205E-01  0.205E-01  0.205E-01
  14.225  0.618E-01  0.206E-01  0.206E-01  0.206E-01
  14.235  0.622E-01  0.207E-01  0.207E-01  0.207E-01
  14.245  0.626E-01  0.209E-01  0.209E-01  0.209E-01
  14.255  0.629E-01  0.210E-01  0.210E-01  0.210E-01
  14.265  0.633E-01  0.211E-01  0.211E-01  0.211E-01
  14.275  0.637E-01  0.212E-01  0.212E-01  0.212E-01
  14.285  0.640E-01  0.213E-01  0.213E-01  0.213E-01
  14.295  0.644E-01  0.215E-01  0.215E-01  0.215E-01
  14.305  0.647E-01  0.216E-01  0.216E-01  0.216E-01
  14.315  0.650E-01  0.217E-01  0.217E-01  0.217E-01
  14.325  0.654E-01  0.218E-01  0.218E-01  0.218E-01
  14.335  0.657E-01  0.219E-01  0.219E-01  0.219E-01
  14.345  0.660E-01  0.220E-01  0.220E-01  0.220E-01
  14.355  0.662E-01  0.221E-01  0.221E-01  0.221E-01
  14.365  0.665E-01  0.222E-01  0.222E-01  0.222E-01
  14.375  0.668E-01  0.223E-01  0.223E-01  0.223E-01
  14.385  0.670E-01  0.223E-01  0.223E-01  0.223E-01
  14.395  0.673E-01  0.224E-01  0.224E-01  0.224E-01
  14.405  0.675E-01  0.225E-01  0.225E-01  0.225E-01
  14.415  0.677E-01  0.226E-01  0.226E-01  0.226E-01
  14.425  0.679E-01  0.226E-01  0.226E-01  0.226E-01
  14.435  0.681E-01  0.227E-01  0.227E-01  0.227E-01
  14.445  0.683E-01  0.228E-01  0.228E-01  0.228E-01
  14.455  0.684E-01  0.228E-01  0.228E-01  0.228E-01
  14.465  0.686E-01  0.229E-01  0.229E-01  0.229E-01
  14.475  0.687E-01  0.229E-01  0.229E-01  0.229E-01
  14.485  0.688E-01  0.229E-01  0.229E-01  0.229E-01
  14.495  0.689E-01  0.230E-01  0.230E-01  0.230E-01
  14.505  0.690E-01  0.230E-01  0.230E-01  0.230E-01
  14.515  0.691E-01  0.230E-01  0.230E-01  0.230E-01
  14.525  0.692E-01  0.231E-01  0.231E-01  0.231E-01
  14.535  0.692E-01  0.231E-01  0.231E-01  0.231E-01
  14.545  0.692E-01  0.231E-01  0.231E-01  0.231E-01
  14.555  0.692E-01  0.231E-01  0.231E-01  0.231E-01
  14.565  0.692E-01  0.231E-01  0.231E-01  0.231E-01
  14.575  0.692E-01  0.231E-01  0.231E-01  0.231E-01
  14.585  0.692E-01  0.231E-01  0.231E-01  0.231E-01
  14.595  0.691E-01  0.230E-01  0.230E-01  0.230E-01
  14.605  0.694E-01  0.231E-01  0.231E-01  0.231E-01
  14.615  0.701E-01  0.234E-01  0.234E-01  0.234E-01
  14.625  0.707E-01  0.236E-01  0.236E-01  0.236E-01
  14.635  0.712E-01  0.237E-01  0.237E-01  0.237E-01
  14.645  0.716E-01  0.239E-01  0.239E-01  0.239E-01
  14.655  0.719E-01  0.240E-01  0.240E-01  0.240E-01
  14.665  0.720E-01  0.240E-01  0.240E-01  0.240E-01
  14.675  0.721E-01  0.240E-01  0.240E-01  0.240E-01
  14.685  0.721E-01  0.240E-01  0.240E-01  0.240E-01
  14.695  0.720E-01  0.240E-01  0.240E-01  0.240E-01
  14.705  0.717E-01  0.239E-01  0.239E-01  0.239E-01
  14.715  0.714E-01  0.238E-01  0.238E-01  0.238E-01
  14.725  0.709E-01  0.236E-01  0.236E-01  0.236E-01
  14.735  0.704E-01  0.235E-01  0.235E-01  0.235E-01
  14.745  0.698E-01  0.233E-01  0.233E-01  0.233E-01
  14.755  0.690E-01  0.230E-01  0.230E-01  0.230E-01
  14.765  0.681E-01  0.227E-01  0.227E-01  0.227E-01
  14.775  0.670E-01  0.223E-01  0.223E-01  0.223E-01
  14.785  0.657E-01  0.219E-01  0.219E-01  0.219E-01
  14.795  0.643E-01  0.214E-01  0.214E-01  0.214E-01
  14.805  0.626E-01  0.209E-01  0.209E-01  0.209E-01
  14.815  0.608E-01  0.203E-01  0.203E-01  0.203E-01
  14.825  0.589E-01  0.196E-01  0.196E-01  0.196E-01
  14.835  0.567E-01  0.189E-01  0.189E-01  0.189E-01
  14.845  0.543E-01  0.181E-01  0.181E-01  0.181E-01
  14.855  0.518E-01  0.173E-01  0.173E-01  0.173E-01
  14.865  0.491E-01  0.164E-01  0.164E-01  0.164E-01
  14.875  0.463E-01  0.154E-01  0.154E-01  0.154E-01
  14.885  0.432E-01  0.144E-01  0.144E-01  0.144E-01
  14.895  0.399E-01  0.133E-01  0.133E-01  0.133E-01
  14.905  0.364E-01  0.121E-01  0.121E-01  0.121E-01
  14.915  0.327E-01  0.109E-01  0.109E-01  0.109E-01
  14.925  0.288E-01  0.958E-02  0.958E-02  0.958E-02
  14.935  0.246E-01  0.820E-02  0.820E-02  0.820E-02
  14.945  0.228E-01  0.760E-02  0.760E-02  0.760E-02
  14.955  0.225E-01  0.750E-02  0.750E-02  0.750E-02
  14.965  0.222E-01  0.740E-02  0.740E-02  0.740E-02
  14.975  0.219E-01  0.730E-02  0.730E-02  0.730E-02
  14.985  0.216E-01  0.720E-02  0.720E-02  0.720E-02
  14.995  0.213E-01  0.709E-02  0.709E-02  0.709E-02
  15.005  0.210E-01  0.699E-02  0.699E-02  0.699E-02
  15.015  0.207E-01  0.689E-02  0.689E-02  0.689E-02
  15.025  0.204E-01  0.679E-02  0.679E-02  0.679E-02
  15.035  0.201E-01  0.669E-02  0.669E-02  0.669E-02
  15.045  0.198E-01  0.659E-02  0.659E-02  0.659E-02
  15.055  0.195E-01  0.650E-02  0.650E-02  0.650E-02
  15.065  0.192E-01  0.640E-02  0.640E-02  0.640E-02
  15.075  0.189E-01  0.630E-02  0.630E-02  0.630E-02
  15.085  0.186E-01  0.620E-02  0.620E-02  0.620E-02
  15.095  0.183E-01  0.611E-02  0.611E-02  0.611E-02
  15.105  0.180E-01  0.601E-02  0.601E-02  0.601E-02
  15.115  0.177E-01  0.591E-02  0.591E-02  0.591E-02
  15.125  0.175E-01  0.582E-02  0.582E-02  0.582E-02
  15.135  0.172E-01  0.572E-02  0.572E-02  0.572E-02
  15.145  0.169E-01  0.563E-02  0.563E-02  0.563E-02
  15.155  0.166E-01  0.553E-02  0.553E-02  0.553E-02
  15.165  0.163E-01  0.544E-02  0.544E-02  0.544E-02
  15.175  0.160E-01  0.535E-02  0.535E-02  0.535E-02
  15.185  0.158E-01  0.526E-02  0.526E-02  0.526E-02
  15.195  0.155E-01  0.516E-02  0.516E-02  0.516E-02
  15.205  0.152E-01  0.507E-02  0.507E-02  0.507E-02
  15.215  0.149E-01  0.498E-02  0.498E-02  0.498E-02
  15.225  0.147E-01  0.489E-02  0.489E-02  0.489E-02
  15.235  0.144E-01  0.480E-02  0.480E-02  0.480E-02
  15.245  0.141E-01  0.471E-02  0.471E-02  0.471E-02
  15.255  0.139E-01  0.462E-02  0.462E-02  0.462E-02
  15.265  0.136E-01  0.454E-02  0.454E-02  0.454E-02
  15.275  0.133E-01  0.445E-02  0.445E-02  0.445E-02
  15.285  0.131E-01  0.436E-02  0.436E-02  0.436E-02
  15.295  0.128E-01  0.428E-02  0.428E-02  0.428E-02
  15.305  0.126E-01  0.419E-02  0.419E-02  0.419E-02
  15.315  0.123E-01  0.411E-02  0.411E-02  0.411E-02
  15.325  0.121E-01  0.402E-02  0.402E-02  0.402E-02
  15.335  0.118E-01  0.394E-02  0.394E-02  0.394E-02
  15.345  0.116E-01  0.386E-02  0.386E-02  0.386E-02
  15.355  0.113E-01  0.377E-02  0.377E-02  0.377E-02
  15.365  0.111E-01  0.369E-02  0.369E-02  0.369E-02
  15.375  0.108E-01  0.361E-02  0.361E-02  0.361E-02
  15.385  0.106E-01  0.353E-02  0.353E-02  0.353E-02
  15.395  0.104E-01  0.345E-02  0.345E-02  0.345E-02
  15.405  0.101E-01  0.337E-02  0.337E-02  0.337E-02
  15.415  0.988E-02  0.329E-02  0.329E-02  0.329E-02
  15.425  0.965E-02  0.322E-02  0.322E-02  0.322E-02
  15.435  0.942E-02  0.314E-02  0.314E-02  0.314E-02
  15.445  0.919E-02  0.306E-02  0.306E-02  0.306E-02
  15.455  0.897E-02  0.299E-02  0.299E-02  0.299E-02
  15.465  0.874E-02  0.291E-02  0.291E-02  0.291E-02
  15.475  0.852E-02  0.284E-02  0.284E-02  0.284E-02
  15.485  0.831E-02  0.277E-02  0.277E-02  0.277E-02
  15.495  0.809E-02  0.270E-02  0.270E-02  0.270E-02
  15.505  0.787E-02  0.262E-02  0.262E-02  0.262E-02
  15.515  0.766E-02  0.255E-02  0.255E-02  0.255E-02
  15.525  0.745E-02  0.248E-02  0.248E-02  0.248E-02
  15.535  0.725E-02  0.242E-02  0.242E-02  0.242E-02
  15.545  0.704E-02  0.235E-02  0.235E-02  0.235E-02
  15.555  0.684E-02  0.228E-02  0.228E-02  0.228E-02
  15.565  0.664E-02  0.221E-02  0.221E-02  0.221E-02
  15.575  0.644E-02  0.215E-02  0.215E-02  0.215E-02
  15.585  0.625E-02  0.208E-02  0.208E-02  0.208E-02
  15.595  0.605E-02  0.202E-02  0.202E-02  0.202E-02
  15.605  0.586E-02  0.195E-02  0.195E-02  0.195E-02
  15.615  0.568E-02  0.189E-02  0.189E-02  0.189E-02
  15.625  0.549E-02  0.183E-02  0.183E-02  0.183E-02
  15.635  0.531E-02  0.177E-02  0.177E-02  0.177E-02
  15.645  0.513E-02  0.171E-02  0.171E-02  0.171E-02
  15.655  0.496E-02  0.165E-02  0.165E-02  0.165E-02
  15.665  0.478E-02  0.159E-02  0.159E-02  0.159E-02
  15.675  0.461E-02  0.154E-02  0.154E-02  0.154E-02
  15.685  0.444E-02  0.148E-02  0.148E-02  0.148E-02
  15.695  0.428E-02  0.143E-02  0.143E-02  0.143E-02
  15.705  0.411E-02  0.137E-02  0.137E-02  0.137E-02
  15.715  0.395E-02  0.132E-02  0.132E-02  0.132E-02
  15.725  0.379E-02  0.126E-02  0.126E-02  0.126E-02
  15.735  0.364E-02  0.121E-02  0.121E-02  0.121E-02
  15.745  0.349E-02  0.116E-02  0.116E-02  0.116E-02
  15.755  0.334E-02  0.111E-02  0.111E-02  0.111E-02
  15.765  0.319E-02  0.106E-02  0.106E-02  0.106E-02
  15.775  0.305E-02  0.102E-02  0.102E-02  0.102E-02
  15.785  0.291E-02  0.970E-03  0.970E-03  0.970E-03
  15.795  0.277E-02  0.925E-03  0.925E-03  0.925E-03
  15.805  0.264E-02  0.880E-03  0.880E-03  0.880E-03
  15.815  0.251E-02  0.836E-03  0.836E-03  0.836E-03
  15.825  0.238E-02  0.794E-03  0.794E-03  0.794E-03
  15.835  0.226E-02  0.752E-03  0.752E-03  0.752E-03
  15.845  0.213E-02  0.712E-03  0.712E-03  0.712E-03
  15.855  0.202E-02  0.672E-03  0.672E-03  0.672E-03
  15.865  0.190E-02  0.633E-03  0.633E-03  0.633E-03
  15.875  0.179E-02  0.596E-03  0.596E-03  0.596E-03
  15.885  0.168E-02  0.560E-03  0.560E-03  0.560E-03
  15.895  0.157E-02  0.524E-03  0.524E-03  0.524E-03
  15.905  0.147E-02  0.490E-03  0.490E-03  0.490E-03
  15.915  0.137E-02  0.457E-03  0.457E-03  0.457E-03
  15.925  0.127E-02  0.425E-03  0.425E-03  0.425E-03
  15.935  0.118E-02  0.394E-03  0.394E-03  0.394E-03
  15.945  0.109E-02  0.364E-03  0.364E-03  0.364E-03
  15.955  0.101E-02  0.335E-03  0.335E-03  0.335E-03
  15.965  0.923E-03  0.308E-03  0.308E-03  0.308E-03
  15.975  0.844E-03  0.281E-03  0.281E-03  0.281E-03
  15.985  0.768E-03  0.256E-03  0.256E-03  0.256E-03
  15.995  0.695E-03  0.232E-03  0.232E-03  0.232E-03
  16.005  0.626E-03  0.209E-03  0.209E-03  0.209E-03
  16.015  0.561E-03  0.187E-03  0.187E-03  0.187E-03
  16.025  0.499E-03  0.166E-03  0.166E-03  0.166E-03
  16.035  0.440E-03  0.147E-03  0.147E-03  0.147E-03
  16.045  0.385E-03  0.128E-03  0.128E-03  0.128E-03
  16.055  0.333E-03  0.111E-03  0.111E-03  0.111E-03
  16.065  0.286E-03  0.952E-04  0.952E-04  0.952E-04
  16.075  0.241E-03  0.804E-04  0.804E-04  0.804E-04
  16.085  0.201E-03  0.669E-04  0.669E-04  0.669E-04
  16.095  0.164E-03  0.546E-04  0.546E-04  0.546E-04
  16.105  0.131E-03  0.435E-04  0.435E-04  0.435E-04
  16.115  0.101E-03  0.337E-04  0.337E-04  0.337E-04
  16.125  0.752E-04  0.251E-04  0.251E-04  0.251E-04
  16.135  0.532E-04  0.177E-04  0.177E-04  0.177E-04
  16.145  0.349E-04  0.116E-04  0.116E-04  0.116E-04
  16.155  0.204E-04  0.681E-05  0.681E-05  0.681E-05
  16.165  0.981E-05  0.327E-05  0.327E-05  0.327E-05
  16.175  0.303E-05  0.101E-05  0.101E-05  0.101E-05
  16.185  0.120E-06  0.399E-07  0.399E-07  0.399E-07
  16.195  0.000E+00  0.000E+00  0.000E+00  0.000E+00
