#  E (eV)   dos(E)     Int dos(E) EFermi =    6.553 eV
  -5.835  0.0000E+00  0.0000E+00
  -5.825  0.3393E-03  0.1131E-05
  -5.815  0.1357E-02  0.9047E-05
  -5.805  0.3053E-02  0.3053E-04
  -5.795  0.5428E-02  0.7237E-04
  -5.785  0.8481E-02  0.1414E-03
  -5.775  0.1221E-01  0.2443E-03
  -5.765  0.1662E-01  0.3879E-03
  -5.755  0.2171E-01  0.5790E-03
  -5.745  0.2748E-01  0.8244E-03
  -5.735  0.3393E-01  0.1131E-02
  -5.725  0.4105E-01  0.1505E-02
  -5.715  0.4885E-01  0.1954E-02
  -5.705  0.5733E-01  0.2484E-02
  -5.695  0.1214E+00  0.3366E-02
  -5.685  0.1600E+00  0.4802E-02
  -5.675  0.1637E+00  0.6450E-02
  -5.665  0.1326E+00  0.7960E-02
  -5.655  0.1046E+00  0.9073E-02
  -5.645  0.1087E+00  0.1014E-01
  -5.635  0.1128E+00  0.1125E-01
  -5.625  0.1169E+00  0.1240E-01
  -5.615  0.1211E+00  0.1359E-01
  -5.605  0.1254E+00  0.1482E-01
  -5.595  0.1297E+00  0.1609E-01
  -5.585  0.1341E+00  0.1741E-01
  -5.575  0.1385E+00  0.1878E-01
  -5.565  0.1431E+00  0.2018E-01
  -5.555  0.1476E+00  0.2164E-01
  -5.545  0.1522E+00  0.2314E-01
  -5.535  0.1569E+00  0.2468E-01
  -5.525  0.1617E+00  0.2627E-01
  -5.515  0.1665E+00  0.2792E-01
  -5.505  0.1713E+00  0.2960E-01
  -5.495  0.1762E+00  0.3134E-01
  -5.485  0.1818E+00  0.3313E-01
  -5.475  0.1896E+00  0.3499E-01
  -5.465  0.1968E+00  0.3692E-01
  -5.455  0.2034E+00  0.3892E-01
  -5.445  0.2095E+00  0.4098E-01
  -5.435  0.2150E+00  0.4311E-01
  -5.425  0.2199E+00  0.4528E-01
  -5.415  0.2242E+00  0.4750E-01
  -5.405  0.2280E+00  0.4977E-01
  -5.395  0.2312E+00  0.5206E-01
  -5.385  0.2339E+00  0.5439E-01
  -5.375  0.2359E+00  0.5674E-01
  -5.365  0.2374E+00  0.5910E-01
  -5.355  0.2368E+00  0.6148E-01
  -5.345  0.2298E+00  0.6381E-01
  -5.335  0.2257E+00  0.6609E-01
  -5.325  0.2244E+00  0.6834E-01
  -5.315  0.2260E+00  0.7059E-01
  -5.305  0.2286E+00  0.7286E-01
  -5.295  0.2312E+00  0.7516E-01
  -5.285  0.2339E+00  0.7748E-01
  -5.275  0.2367E+00  0.7984E-01
  -5.265  0.2395E+00  0.8222E-01
  -5.255  0.2424E+00  0.8463E-01
  -5.245  0.2454E+00  0.8707E-01
  -5.235  0.2483E+00  0.8953E-01
  -5.225  0.2514E+00  0.9203E-01
  -5.215  0.2545E+00  0.9456E-01
  -5.205  0.2576E+00  0.9712E-01
  -5.195  0.2608E+00  0.9971E-01
  -5.185  0.2641E+00  0.1023E+00
  -5.175  0.2674E+00  0.1050E+00
  -5.165  0.2707E+00  0.1077E+00
  -5.155  0.2741E+00  0.1104E+00
  -5.145  0.2776E+00  0.1132E+00
  -5.135  0.2811E+00  0.1160E+00
  -5.125  0.2846E+00  0.1188E+00
  -5.115  0.2882E+00  0.1217E+00
  -5.105  0.2917E+00  0.1246E+00
  -5.095  0.2953E+00  0.1275E+00
  -5.085  0.2988E+00  0.1305E+00
  -5.075  0.3024E+00  0.1335E+00
  -5.065  0.3060E+00  0.1365E+00
  -5.055  0.3095E+00  0.1396E+00
  -5.045  0.3131E+00  0.1427E+00
  -5.035  0.3167E+00  0.1458E+00
  -5.025  0.3203E+00  0.1490E+00
  -5.015  0.3237E+00  0.1523E+00
  -5.005  0.3262E+00  0.1555E+00
  -4.995  0.3279E+00  0.1588E+00
  -4.985  0.3290E+00  0.1621E+00
  -4.975  0.3294E+00  0.1654E+00
  -4.965  0.3308E+00  0.1687E+00
  -4.955  0.3328E+00  0.1720E+00
  -4.945  0.3347E+00  0.1753E+00
  -4.935  0.3366E+00  0.1787E+00
  -4.925  0.3385E+00  0.1820E+00
  -4.915  0.3404E+00  0.1854E+00
  -4.905  0.3422E+00  0.1888E+00
  -4.895  0.3440E+00  0.1923E+00
  -4.885  0.3458E+00  0.1957E+00
  -4.875  0.3475E+00  0.1992E+00
  -4.865  0.3493E+00  0.2027E+00
  -4.855  0.3510E+00  0.2062E+00
  -4.845  0.3527E+00  0.2097E+00
  -4.835  0.3543E+00  0.2132E+00
  -4.825  0.3559E+00  0.2168E+00
  -4.815  0.3575E+00  0.2204E+00
  -4.805  0.3585E+00  0.2239E+00
  -4.795  0.3593E+00  0.2275E+00
  -4.785  0.3602E+00  0.2311E+00
  -4.775  0.3614E+00  0.2347E+00
  -4.765  0.3627E+00  0.2383E+00
  -4.755  0.3642E+00  0.2420E+00
  -4.745  0.3658E+00  0.2456E+00
  -4.735  0.3677E+00  0.2493E+00
  -4.725  0.3697E+00  0.2530E+00
  -4.715  0.3719E+00  0.2567E+00
  -4.705  0.3743E+00  0.2604E+00
  -4.695  0.3769E+00  0.2642E+00
  -4.685  0.3795E+00  0.2680E+00
  -4.675  0.3822E+00  0.2718E+00
  -4.665  0.3851E+00  0.2756E+00
  -4.655  0.3880E+00  0.2795E+00
  -4.645  0.3910E+00  0.2834E+00
  -4.635  0.3940E+00  0.2873E+00
  -4.625  0.3970E+00  0.2912E+00
  -4.615  0.4001E+00  0.2952E+00
  -4.605  0.4031E+00  0.2992E+00
  -4.595  0.4061E+00  0.3033E+00
  -4.585  0.4092E+00  0.3074E+00
  -4.575  0.4123E+00  0.3115E+00
  -4.565  0.4154E+00  0.3156E+00
  -4.555  0.4185E+00  0.3198E+00
  -4.545  0.4216E+00  0.3240E+00
  -4.535  0.4248E+00  0.3282E+00
  -4.525  0.4280E+00  0.3325E+00
  -4.515  0.4311E+00  0.3368E+00
  -4.505  0.4343E+00  0.3411E+00
  -4.495  0.4375E+00  0.3455E+00
  -4.485  0.4407E+00  0.3499E+00
  -4.475  0.4439E+00  0.3543E+00
  -4.465  0.4469E+00  0.3587E+00
  -4.455  0.4496E+00  0.3632E+00
  -4.445  0.4521E+00  0.3677E+00
  -4.435  0.4544E+00  0.3723E+00
  -4.425  0.4565E+00  0.3768E+00
  -4.415  0.4583E+00  0.3814E+00
  -4.405  0.4600E+00  0.3860E+00
  -4.395  0.4614E+00  0.3906E+00
  -4.385  0.4625E+00  0.3952E+00
  -4.375  0.4635E+00  0.3998E+00
  -4.365  0.4643E+00  0.4045E+00
  -4.355  0.4645E+00  0.4091E+00
  -4.345  0.4674E+00  0.4138E+00
  -4.335  0.4712E+00  0.4185E+00
  -4.325  0.4735E+00  0.4232E+00
  -4.315  0.4759E+00  0.4279E+00
  -4.305  0.4782E+00  0.4327E+00
  -4.295  0.4806E+00  0.4375E+00
  -4.285  0.4829E+00  0.4423E+00
  -4.275  0.4853E+00  0.4472E+00
  -4.265  0.4877E+00  0.4520E+00
  -4.255  0.4901E+00  0.4569E+00
  -4.245  0.4926E+00  0.4618E+00
  -4.235  0.4951E+00  0.4668E+00
  -4.225  0.4975E+00  0.4717E+00
  -4.215  0.5000E+00  0.4767E+00
  -4.205  0.5026E+00  0.4817E+00
  -4.195  0.5051E+00  0.4868E+00
  -4.185  0.5077E+00  0.4918E+00
  -4.175  0.5102E+00  0.4969E+00
  -4.165  0.5128E+00  0.5020E+00
  -4.155  0.5154E+00  0.5072E+00
  -4.145  0.5181E+00  0.5124E+00
  -4.135  0.5207E+00  0.5175E+00
  -4.125  0.5234E+00  0.5228E+00
  -4.115  0.5260E+00  0.5280E+00
  -4.105  0.5286E+00  0.5333E+00
  -4.095  0.5312E+00  0.5386E+00
  -4.085  0.5338E+00  0.5439E+00
  -4.075  0.5361E+00  0.5493E+00
  -4.065  0.5385E+00  0.5546E+00
  -4.055  0.5411E+00  0.5600E+00
  -4.045  0.5439E+00  0.5655E+00
  -4.035  0.5468E+00  0.5709E+00
  -4.025  0.5500E+00  0.5764E+00
  -4.015  0.5533E+00  0.5819E+00
  -4.005  0.5567E+00  0.5875E+00
  -3.995  0.5604E+00  0.5930E+00
  -3.985  0.5642E+00  0.5987E+00
  -3.975  0.5681E+00  0.6043E+00
  -3.965  0.5721E+00  0.6100E+00
  -3.955  0.5762E+00  0.6158E+00
  -3.945  0.5804E+00  0.6216E+00
  -3.935  0.5846E+00  0.6274E+00
  -3.925  0.5890E+00  0.6332E+00
  -3.915  0.5934E+00  0.6392E+00
  -3.905  0.5979E+00  0.6451E+00
  -3.895  0.6024E+00  0.6511E+00
  -3.885  0.6071E+00  0.6572E+00
  -3.875  0.6118E+00  0.6633E+00
  -3.865  0.6165E+00  0.6694E+00
  -3.855  0.6214E+00  0.6756E+00
  -3.845  0.6263E+00  0.6818E+00
  -3.835  0.6314E+00  0.6881E+00
  -3.825  0.6364E+00  0.6945E+00
  -3.815  0.6416E+00  0.7008E+00
  -3.805  0.6468E+00  0.7073E+00
  -3.795  0.6521E+00  0.7138E+00
  -3.785  0.6575E+00  0.7203E+00
  -3.775  0.6630E+00  0.7269E+00
  -3.765  0.6685E+00  0.7336E+00
  -3.755  0.6739E+00  0.7403E+00
  -3.745  0.6793E+00  0.7471E+00
  -3.735  0.6848E+00  0.7539E+00
  -3.725  0.6903E+00  0.7608E+00
  -3.715  0.6958E+00  0.7677E+00
  -3.705  0.7014E+00  0.7747E+00
  -3.695  0.7072E+00  0.7817E+00
  -3.685  0.7133E+00  0.7888E+00
  -3.675  0.7195E+00  0.7960E+00
  -3.665  0.7258E+00  0.8032E+00
  -3.655  0.7322E+00  0.8105E+00
  -3.645  0.7386E+00  0.8179E+00
  -3.635  0.7452E+00  0.8253E+00
  -3.625  0.7519E+00  0.8328E+00
  -3.615  0.7586E+00  0.8403E+00
  -3.605  0.8296E+00  0.8480E+00
  -3.595  0.8430E+00  0.8564E+00
  -3.585  0.8554E+00  0.8649E+00
  -3.575  0.8667E+00  0.8735E+00
  -3.565  0.8771E+00  0.8822E+00
  -3.555  0.8865E+00  0.8911E+00
  -3.545  0.8949E+00  0.9000E+00
  -3.535  0.9023E+00  0.9090E+00
  -3.525  0.9087E+00  0.9180E+00
  -3.515  0.9141E+00  0.9271E+00
  -3.505  0.9185E+00  0.9363E+00
  -3.495  0.9219E+00  0.9455E+00
  -3.485  0.9238E+00  0.9547E+00
  -3.475  0.9219E+00  0.9640E+00
  -3.465  0.9158E+00  0.9731E+00
  -3.455  0.9055E+00  0.9823E+00
  -3.445  0.8910E+00  0.9912E+00
  -3.435  0.8760E+00  0.1000E+01
  -3.425  0.8737E+00  0.1009E+01
  -3.415  0.8714E+00  0.1018E+01
  -3.405  0.8691E+00  0.1026E+01
  -3.395  0.8668E+00  0.1035E+01
  -3.385  0.8646E+00  0.1044E+01
  -3.375  0.8624E+00  0.1052E+01
  -3.365  0.8603E+00  0.1061E+01
  -3.355  0.8582E+00  0.1069E+01
  -3.345  0.8561E+00  0.1078E+01
  -3.335  0.8541E+00  0.1087E+01
  -3.325  0.8521E+00  0.1095E+01
  -3.315  0.8502E+00  0.1104E+01
  -3.305  0.8484E+00  0.1112E+01
  -3.295  0.8466E+00  0.1121E+01
  -3.285  0.8448E+00  0.1129E+01
  -3.275  0.8431E+00  0.1137E+01
  -3.265  0.8414E+00  0.1146E+01
  -3.255  0.8398E+00  0.1154E+01
  -3.245  0.8381E+00  0.1163E+01
  -3.235  0.8364E+00  0.1171E+01
  -3.225  0.8346E+00  0.1179E+01
  -3.215  0.8328E+00  0.1188E+01
  -3.205  0.8310E+00  0.1196E+01
  -3.195  0.8291E+00  0.1204E+01
  -3.185  0.8271E+00  0.1213E+01
  -3.175  0.8251E+00  0.1221E+01
  -3.165  0.8230E+00  0.1229E+01
  -3.155  0.8209E+00  0.1237E+01
  -3.145  0.8187E+00  0.1246E+01
  -3.135  0.8102E+00  0.1254E+01
  -3.125  0.8027E+00  0.1262E+01
  -3.115  0.7976E+00  0.1270E+01
  -3.105  0.7948E+00  0.1278E+01
  -3.095  0.7939E+00  0.1286E+01
  -3.085  0.7927E+00  0.1294E+01
  -3.075  0.7912E+00  0.1302E+01
  -3.065  0.7893E+00  0.1309E+01
  -3.055  0.7871E+00  0.1317E+01
  -3.045  0.7845E+00  0.1325E+01
  -3.035  0.7817E+00  0.1333E+01
  -3.025  0.7787E+00  0.1341E+01
  -3.015  0.7767E+00  0.1349E+01
  -3.005  0.7757E+00  0.1356E+01
  -2.995  0.7757E+00  0.1364E+01
  -2.985  0.7767E+00  0.1372E+01
  -2.975  0.7788E+00  0.1380E+01
  -2.965  0.7818E+00  0.1387E+01
  -2.955  0.7849E+00  0.1395E+01
  -2.945  0.7786E+00  0.1403E+01
  -2.935  0.7723E+00  0.1411E+01
  -2.925  0.7663E+00  0.1419E+01
  -2.915  0.7603E+00  0.1426E+01
  -2.905  0.7545E+00  0.1434E+01
  -2.895  0.7489E+00  0.1441E+01
  -2.885  0.7434E+00  0.1449E+01
  -2.875  0.7382E+00  0.1456E+01
  -2.865  0.7331E+00  0.1463E+01
  -2.855  0.7282E+00  0.1471E+01
  -2.845  0.7234E+00  0.1478E+01
  -2.835  0.7189E+00  0.1485E+01
  -2.825  0.7145E+00  0.1492E+01
  -2.815  0.7103E+00  0.1500E+01
  -2.805  0.7063E+00  0.1507E+01
  -2.795  0.7025E+00  0.1514E+01
  -2.785  0.6988E+00  0.1521E+01
  -2.775  0.6954E+00  0.1528E+01
  -2.765  0.6921E+00  0.1535E+01
  -2.755  0.6890E+00  0.1541E+01
  -2.745  0.6851E+00  0.1548E+01
  -2.735  0.6811E+00  0.1555E+01
  -2.725  0.6772E+00  0.1562E+01
  -2.715  0.6734E+00  0.1569E+01
  -2.705  0.6698E+00  0.1575E+01
  -2.695  0.6663E+00  0.1582E+01
  -2.685  0.6630E+00  0.1589E+01
  -2.675  0.6598E+00  0.1595E+01
  -2.665  0.6567E+00  0.1602E+01
  -2.655  0.6538E+00  0.1609E+01
  -2.645  0.6511E+00  0.1615E+01
  -2.635  0.6485E+00  0.1622E+01
  -2.625  0.6462E+00  0.1628E+01
  -2.615  0.6440E+00  0.1634E+01
  -2.605  0.6420E+00  0.1641E+01
  -2.595  0.6402E+00  0.1647E+01
  -2.585  0.6386E+00  0.1654E+01
  -2.575  0.6371E+00  0.1660E+01
  -2.565  0.6358E+00  0.1666E+01
  -2.555  0.6347E+00  0.1673E+01
  -2.545  0.6338E+00  0.1679E+01
  -2.535  0.6331E+00  0.1685E+01
  -2.525  0.6326E+00  0.1692E+01
  -2.515  0.6322E+00  0.1698E+01
  -2.505  0.6320E+00  0.1704E+01
  -2.495  0.6320E+00  0.1711E+01
  -2.485  0.6316E+00  0.1717E+01
  -2.475  0.6305E+00  0.1723E+01
  -2.465  0.6292E+00  0.1730E+01
  -2.455  0.6280E+00  0.1736E+01
  -2.445  0.6267E+00  0.1742E+01
  -2.435  0.6254E+00  0.1749E+01
  -2.425  0.6240E+00  0.1755E+01
  -2.415  0.6226E+00  0.1761E+01
  -2.405  0.6211E+00  0.1767E+01
  -2.395  0.6196E+00  0.1773E+01
  -2.385  0.6180E+00  0.1780E+01
  -2.375  0.6158E+00  0.1786E+01
  -2.365  0.6135E+00  0.1792E+01
  -2.355  0.6112E+00  0.1798E+01
  -2.345  0.6088E+00  0.1804E+01
  -2.335  0.6065E+00  0.1810E+01
  -2.325  0.6041E+00  0.1816E+01
  -2.315  0.6018E+00  0.1822E+01
  -2.305  0.5994E+00  0.1828E+01
  -2.295  0.5970E+00  0.1834E+01
  -2.285  0.5946E+00  0.1840E+01
  -2.275  0.5922E+00  0.1846E+01
  -2.265  0.5897E+00  0.1852E+01
  -2.255  0.5507E+00  0.1858E+01
  -2.245  0.5353E+00  0.1863E+01
  -2.235  0.5208E+00  0.1869E+01
  -2.225  0.5068E+00  0.1874E+01
  -2.215  0.4931E+00  0.1879E+01
  -2.205  0.4798E+00  0.1884E+01
  -2.195  0.4669E+00  0.1888E+01
  -2.185  0.4544E+00  0.1893E+01
  -2.175  0.4424E+00  0.1897E+01
  -2.165  0.4307E+00  0.1902E+01
  -2.155  0.4193E+00  0.1906E+01
  -2.145  0.4079E+00  0.1910E+01
  -2.135  0.3967E+00  0.1914E+01
  -2.125  0.3855E+00  0.1918E+01
  -2.115  0.3745E+00  0.1922E+01
  -2.105  0.3636E+00  0.1926E+01
  -2.095  0.3528E+00  0.1929E+01
  -2.085  0.3421E+00  0.1933E+01
  -2.075  0.3315E+00  0.1936E+01
  -2.065  0.3211E+00  0.1939E+01
  -2.055  0.3107E+00  0.1942E+01
  -2.045  0.3005E+00  0.1946E+01
  -2.035  0.2904E+00  0.1948E+01
  -2.025  0.2804E+00  0.1951E+01
  -2.015  0.2706E+00  0.1954E+01
  -2.005  0.2608E+00  0.1957E+01
  -1.995  0.2512E+00  0.1959E+01
  -1.985  0.2417E+00  0.1962E+01
  -1.975  0.2323E+00  0.1964E+01
  -1.965  0.2230E+00  0.1966E+01
  -1.955  0.2139E+00  0.1969E+01
  -1.945  0.2048E+00  0.1971E+01
  -1.935  0.1959E+00  0.1973E+01
  -1.925  0.1871E+00  0.1975E+01
  -1.915  0.1784E+00  0.1976E+01
  -1.905  0.1698E+00  0.1978E+01
  -1.895  0.1614E+00  0.1980E+01
  -1.885  0.1532E+00  0.1981E+01
  -1.875  0.1452E+00  0.1983E+01
  -1.865  0.1373E+00  0.1984E+01
  -1.855  0.1297E+00  0.1986E+01
  -1.845  0.1223E+00  0.1987E+01
  -1.835  0.1150E+00  0.1988E+01
  -1.825  0.1080E+00  0.1989E+01
  -1.815  0.1012E+00  0.1990E+01
  -1.805  0.9451E-01  0.1991E+01
  -1.795  0.8807E-01  0.1992E+01
  -1.785  0.8183E-01  0.1993E+01
  -1.775  0.7579E-01  0.1994E+01
  -1.765  0.6995E-01  0.1995E+01
  -1.755  0.6430E-01  0.1995E+01
  -1.745  0.5885E-01  0.1996E+01
  -1.735  0.5360E-01  0.1996E+01
  -1.725  0.4855E-01  0.1997E+01
  -1.715  0.4370E-01  0.1997E+01
  -1.705  0.3905E-01  0.1998E+01
  -1.695  0.3459E-01  0.1998E+01
  -1.685  0.3034E-01  0.1998E+01
  -1.675  0.2633E-01  0.1999E+01
  -1.665  0.2270E-01  0.1999E+01
  -1.655  0.1948E-01  0.1999E+01
  -1.645  0.1666E-01  0.1999E+01
  -1.635  0.1423E-01  0.2000E+01
  -1.625  0.1246E-01  0.2000E+01
  -1.615  0.1196E-01  0.2000E+01
  -1.605  0.1176E-01  0.2000E+01
  -1.595  0.1186E-01  0.2000E+01
  -1.585  0.1226E-01  0.2000E+01
  -1.575  0.1296E-01  0.2000E+01
  -1.565  0.1396E-01  0.2000E+01
  -1.555  0.1526E-01  0.2001E+01
  -1.545  0.1686E-01  0.2001E+01
  -1.535  0.1876E-01  0.2001E+01
  -1.525  0.2136E-01  0.2001E+01
  -1.515  0.2455E-01  0.2001E+01
  -1.505  0.2796E-01  0.2002E+01
  -1.495  0.3158E-01  0.2002E+01
  -1.485  0.3542E-01  0.2002E+01
  -1.475  0.3948E-01  0.2003E+01
  -1.465  0.4376E-01  0.2003E+01
  -1.455  0.4825E-01  0.2003E+01
  -1.445  0.5296E-01  0.2004E+01
  -1.435  0.5789E-01  0.2005E+01
  -1.425  0.6304E-01  0.2005E+01
  -1.415  0.6840E-01  0.2006E+01
  -1.405  0.7398E-01  0.2006E+01
  -1.395  0.7977E-01  0.2007E+01
  -1.385  0.8579E-01  0.2008E+01
  -1.375  0.9202E-01  0.2009E+01
  -1.365  0.9847E-01  0.2010E+01
  -1.355  0.1051E+00  0.2011E+01
  -1.345  0.1120E+00  0.2012E+01
  -1.335  0.1191E+00  0.2013E+01
  -1.325  0.1264E+00  0.2014E+01
  -1.315  0.1340E+00  0.2016E+01
  -1.305  0.1417E+00  0.2017E+01
  -1.295  0.1497E+00  0.2019E+01
  -1.285  0.1577E+00  0.2020E+01
  -1.275  0.1659E+00  0.2022E+01
  -1.265  0.1741E+00  0.2023E+01
  -1.255  0.1825E+00  0.2025E+01
  -1.245  0.1911E+00  0.2027E+01
  -1.235  0.1997E+00  0.2029E+01
  -1.225  0.2084E+00  0.2031E+01
  -1.215  0.2173E+00  0.2033E+01
  -1.205  0.2263E+00  0.2035E+01
  -1.195  0.2354E+00  0.2038E+01
  -1.185  0.2446E+00  0.2040E+01
  -1.175  0.2540E+00  0.2043E+01
  -1.165  0.2634E+00  0.2045E+01
  -1.155  0.2730E+00  0.2048E+01
  -1.145  0.2827E+00  0.2051E+01
  -1.135  0.2925E+00  0.2054E+01
  -1.125  0.3025E+00  0.2056E+01
  -1.115  0.3125E+00  0.2060E+01
  -1.105  0.3227E+00  0.2063E+01
  -1.095  0.3330E+00  0.2066E+01
  -1.085  0.3434E+00  0.2069E+01
  -1.075  0.3539E+00  0.2073E+01
  -1.065  0.3646E+00  0.2076E+01
  -1.055  0.3753E+00  0.2080E+01
  -1.045  0.3862E+00  0.2084E+01
  -1.035  0.3972E+00  0.2088E+01
  -1.025  0.4083E+00  0.2092E+01
  -1.015  0.4195E+00  0.2096E+01
  -1.005  0.4309E+00  0.2100E+01
  -0.995  0.4423E+00  0.2105E+01
  -0.985  0.4539E+00  0.2109E+01
  -0.975  0.4656E+00  0.2114E+01
  -0.965  0.4775E+00  0.2118E+01
  -0.955  0.4894E+00  0.2123E+01
  -0.945  0.5015E+00  0.2128E+01
  -0.935  0.5136E+00  0.2133E+01
  -0.925  0.5293E+00  0.2139E+01
  -0.915  0.5504E+00  0.2144E+01
  -0.905  0.5768E+00  0.2150E+01
  -0.895  0.6091E+00  0.2156E+01
  -0.885  0.6509E+00  0.2162E+01
  -0.875  0.7023E+00  0.2169E+01
  -0.865  0.7110E+00  0.2176E+01
  -0.855  0.7207E+00  0.2183E+01
  -0.845  0.7320E+00  0.2190E+01
  -0.835  0.7449E+00  0.2197E+01
  -0.825  0.7595E+00  0.2205E+01
  -0.815  0.7757E+00  0.2213E+01
  -0.805  0.7935E+00  0.2220E+01
  -0.795  0.8129E+00  0.2228E+01
  -0.785  0.8340E+00  0.2237E+01
  -0.775  0.8566E+00  0.2245E+01
  -0.765  0.8775E+00  0.2254E+01
  -0.755  0.9027E+00  0.2263E+01
  -0.745  0.9335E+00  0.2272E+01
  -0.735  0.9698E+00  0.2281E+01
  -0.725  0.1012E+01  0.2291E+01
  -0.715  0.1059E+01  0.2302E+01
  -0.705  0.1146E+01  0.2314E+01
  -0.695  0.1178E+01  0.2326E+01
  -0.685  0.1207E+01  0.2338E+01
  -0.675  0.1231E+01  0.2350E+01
  -0.665  0.1252E+01  0.2362E+01
  -0.655  0.1269E+01  0.2375E+01
  -0.645  0.1282E+01  0.2388E+01
  -0.635  0.1292E+01  0.2401E+01
  -0.625  0.1298E+01  0.2413E+01
  -0.615  0.1300E+01  0.2426E+01
  -0.605  0.1302E+01  0.2439E+01
  -0.595  0.1311E+01  0.2453E+01
  -0.585  0.1323E+01  0.2466E+01
  -0.575  0.1336E+01  0.2479E+01
  -0.565  0.1347E+01  0.2492E+01
  -0.555  0.1355E+01  0.2506E+01
  -0.545  0.1360E+01  0.2519E+01
  -0.535  0.1362E+01  0.2533E+01
  -0.525  0.1361E+01  0.2547E+01
  -0.515  0.1358E+01  0.2560E+01
  -0.505  0.1352E+01  0.2574E+01
  -0.495  0.1343E+01  0.2587E+01
  -0.485  0.1331E+01  0.2601E+01
  -0.475  0.1317E+01  0.2614E+01
  -0.465  0.1300E+01  0.2627E+01
  -0.455  0.1284E+01  0.2640E+01
  -0.445  0.1269E+01  0.2653E+01
  -0.435  0.1253E+01  0.2665E+01
  -0.425  0.1236E+01  0.2678E+01
  -0.415  0.1218E+01  0.2690E+01
  -0.405  0.1198E+01  0.2702E+01
  -0.395  0.1176E+01  0.2714E+01
  -0.385  0.1152E+01  0.2726E+01
  -0.375  0.1126E+01  0.2737E+01
  -0.365  0.1097E+01  0.2748E+01
  -0.355  0.1063E+01  0.2759E+01
  -0.345  0.1029E+01  0.2769E+01
  -0.335  0.1003E+01  0.2780E+01
  -0.325  0.9793E+00  0.2789E+01
  -0.315  0.9576E+00  0.2799E+01
  -0.305  0.9379E+00  0.2809E+01
  -0.295  0.9204E+00  0.2818E+01
  -0.285  0.9046E+00  0.2827E+01
  -0.275  0.8893E+00  0.2836E+01
  -0.265  0.8745E+00  0.2845E+01
  -0.255  0.8601E+00  0.2854E+01
  -0.245  0.8462E+00  0.2862E+01
  -0.235  0.8328E+00  0.2870E+01
  -0.225  0.8198E+00  0.2879E+01
  -0.215  0.8074E+00  0.2887E+01
  -0.205  0.7954E+00  0.2895E+01
  -0.195  0.7838E+00  0.2903E+01
  -0.185  0.7728E+00  0.2911E+01
  -0.175  0.7621E+00  0.2918E+01
  -0.165  0.7519E+00  0.2926E+01
  -0.155  0.7420E+00  0.2933E+01
  -0.145  0.7324E+00  0.2941E+01
  -0.135  0.7231E+00  0.2948E+01
  -0.125  0.7141E+00  0.2955E+01
  -0.115  0.7054E+00  0.2962E+01
  -0.105  0.6971E+00  0.2969E+01
  -0.095  0.6890E+00  0.2976E+01
  -0.085  0.6813E+00  0.2983E+01
  -0.075  0.6738E+00  0.2990E+01
  -0.065  0.6667E+00  0.2996E+01
  -0.055  0.6599E+00  0.3003E+01
  -0.045  0.6534E+00  0.3010E+01
  -0.035  0.6472E+00  0.3016E+01
  -0.025  0.6413E+00  0.3023E+01
  -0.015  0.6356E+00  0.3029E+01
  -0.005  0.6300E+00  0.3035E+01
   0.005  0.6244E+00  0.3042E+01
   0.015  0.6189E+00  0.3048E+01
   0.025  0.6135E+00  0.3054E+01
   0.035  0.6081E+00  0.3060E+01
   0.045  0.6028E+00  0.3066E+01
   0.055  0.5976E+00  0.3072E+01
   0.065  0.5925E+00  0.3078E+01
   0.075  0.5875E+00  0.3084E+01
   0.085  0.5825E+00  0.3090E+01
   0.095  0.5776E+00  0.3096E+01
   0.105  0.5728E+00  0.3101E+01
   0.115  0.5680E+00  0.3107E+01
   0.125  0.5634E+00  0.3113E+01
   0.135  0.5588E+00  0.3118E+01
   0.145  0.5543E+00  0.3124E+01
   0.155  0.5498E+00  0.3129E+01
   0.165  0.5455E+00  0.3135E+01
   0.175  0.5412E+00  0.3140E+01
   0.185  0.5370E+00  0.3146E+01
   0.195  0.5328E+00  0.3151E+01
   0.205  0.5288E+00  0.3156E+01
   0.215  0.5248E+00  0.3162E+01
   0.225  0.5209E+00  0.3167E+01
   0.235  0.5170E+00  0.3172E+01
   0.245  0.5133E+00  0.3177E+01
   0.255  0.5096E+00  0.3182E+01
   0.265  0.5061E+00  0.3187E+01
   0.275  0.5028E+00  0.3192E+01
   0.285  0.4995E+00  0.3197E+01
   0.295  0.4963E+00  0.3202E+01
   0.305  0.4931E+00  0.3207E+01
   0.315  0.4899E+00  0.3212E+01
   0.325  0.4868E+00  0.3217E+01
   0.335  0.4837E+00  0.3222E+01
   0.345  0.4806E+00  0.3227E+01
   0.355  0.4775E+00  0.3232E+01
   0.365  0.4744E+00  0.3236E+01
   0.375  0.4714E+00  0.3241E+01
   0.385  0.4683E+00  0.3246E+01
   0.395  0.4653E+00  0.3251E+01
   0.405  0.4623E+00  0.3255E+01
   0.415  0.4595E+00  0.3260E+01
   0.425  0.4573E+00  0.3264E+01
   0.435  0.4549E+00  0.3269E+01
   0.445  0.4526E+00  0.3273E+01
   0.455  0.4502E+00  0.3278E+01
   0.465  0.4478E+00  0.3282E+01
   0.475  0.4454E+00  0.3287E+01
   0.485  0.4429E+00  0.3291E+01
   0.495  0.4405E+00  0.3296E+01
   0.505  0.4379E+00  0.3300E+01
   0.515  0.4354E+00  0.3305E+01
   0.525  0.4328E+00  0.3309E+01
   0.535  0.4302E+00  0.3313E+01
   0.545  0.4276E+00  0.3317E+01
   0.555  0.4249E+00  0.3322E+01
   0.565  0.4222E+00  0.3326E+01
   0.575  0.4195E+00  0.3330E+01
   0.585  0.4168E+00  0.3334E+01
   0.595  0.4140E+00  0.3339E+01
   0.605  0.4112E+00  0.3343E+01
   0.615  0.4082E+00  0.3347E+01
   0.625  0.4051E+00  0.3351E+01
   0.635  0.4021E+00  0.3355E+01
   0.645  0.3992E+00  0.3359E+01
   0.655  0.3962E+00  0.3363E+01
   0.665  0.3933E+00  0.3367E+01
   0.675  0.3904E+00  0.3371E+01
   0.685  0.3876E+00  0.3375E+01
   0.695  0.3847E+00  0.3378E+01
   0.705  0.3819E+00  0.3382E+01
   0.715  0.3792E+00  0.3386E+01
   0.725  0.3764E+00  0.3390E+01
   0.735  0.3736E+00  0.3394E+01
   0.745  0.3709E+00  0.3397E+01
   0.755  0.3684E+00  0.3401E+01
   0.765  0.3659E+00  0.3405E+01
   0.775  0.3635E+00  0.3408E+01
   0.785  0.3612E+00  0.3412E+01
   0.795  0.3590E+00  0.3416E+01
   0.805  0.3569E+00  0.3419E+01
   0.815  0.3549E+00  0.3423E+01
   0.825  0.3529E+00  0.3426E+01
   0.835  0.3510E+00  0.3430E+01
   0.845  0.3491E+00  0.3433E+01
   0.855  0.3473E+00  0.3437E+01
   0.865  0.3454E+00  0.3440E+01
   0.875  0.3435E+00  0.3444E+01
   0.885  0.3416E+00  0.3447E+01
   0.895  0.3398E+00  0.3450E+01
   0.905  0.3379E+00  0.3454E+01
   0.915  0.3361E+00  0.3457E+01
   0.925  0.3343E+00  0.3461E+01
   0.935  0.3325E+00  0.3464E+01
   0.945  0.3306E+00  0.3467E+01
   0.955  0.3288E+00  0.3471E+01
   0.965  0.3270E+00  0.3474E+01
   0.975  0.3252E+00  0.3477E+01
   0.985  0.3235E+00  0.3480E+01
   0.995  0.3217E+00  0.3484E+01
   1.005  0.3199E+00  0.3487E+01
   1.015  0.3181E+00  0.3490E+01
   1.025  0.3164E+00  0.3493E+01
   1.035  0.3146E+00  0.3496E+01
   1.045  0.3129E+00  0.3499E+01
   1.055  0.3112E+00  0.3503E+01
   1.065  0.3095E+00  0.3506E+01
   1.075  0.3077E+00  0.3509E+01
   1.085  0.3060E+00  0.3512E+01
   1.095  0.3043E+00  0.3515E+01
   1.105  0.3026E+00  0.3518E+01
   1.115  0.3010E+00  0.3521E+01
   1.125  0.2993E+00  0.3524E+01
   1.135  0.2976E+00  0.3527E+01
   1.145  0.2960E+00  0.3530E+01
   1.155  0.2943E+00  0.3533E+01
   1.165  0.2927E+00  0.3536E+01
   1.175  0.2910E+00  0.3539E+01
   1.185  0.2894E+00  0.3542E+01
   1.195  0.2878E+00  0.3544E+01
   1.205  0.2862E+00  0.3547E+01
   1.215  0.2845E+00  0.3550E+01
   1.225  0.2829E+00  0.3553E+01
   1.235  0.2814E+00  0.3556E+01
   1.245  0.2798E+00  0.3559E+01
   1.255  0.2782E+00  0.3561E+01
   1.265  0.2766E+00  0.3564E+01
   1.275  0.2751E+00  0.3567E+01
   1.285  0.2735E+00  0.3570E+01
   1.295  0.2720E+00  0.3572E+01
   1.305  0.2704E+00  0.3575E+01
   1.315  0.2689E+00  0.3578E+01
   1.325  0.2674E+00  0.3581E+01
   1.335  0.2659E+00  0.3583E+01
   1.345  0.2644E+00  0.3586E+01
   1.355  0.2656E+00  0.3588E+01
   1.365  0.2645E+00  0.3591E+01
   1.375  0.2635E+00  0.3594E+01
   1.385  0.2626E+00  0.3596E+01
   1.395  0.2616E+00  0.3599E+01
   1.405  0.2607E+00  0.3602E+01
   1.415  0.2597E+00  0.3604E+01
   1.425  0.2587E+00  0.3607E+01
   1.435  0.2577E+00  0.3609E+01
   1.445  0.2567E+00  0.3612E+01
   1.455  0.2556E+00  0.3615E+01
   1.465  0.2545E+00  0.3617E+01
   1.475  0.2534E+00  0.3620E+01
   1.485  0.2523E+00  0.3622E+01
   1.495  0.2512E+00  0.3625E+01
   1.505  0.2500E+00  0.3627E+01
   1.515  0.2488E+00  0.3630E+01
   1.525  0.2476E+00  0.3632E+01
   1.535  0.2463E+00  0.3635E+01
   1.545  0.2450E+00  0.3637E+01
   1.555  0.2438E+00  0.3640E+01
   1.565  0.2424E+00  0.3642E+01
   1.575  0.2411E+00  0.3644E+01
   1.585  0.2397E+00  0.3647E+01
   1.595  0.2383E+00  0.3649E+01
   1.605  0.2369E+00  0.3652E+01
   1.615  0.2355E+00  0.3654E+01
   1.625  0.2340E+00  0.3656E+01
   1.635  0.2326E+00  0.3659E+01
   1.645  0.2311E+00  0.3661E+01
   1.655  0.2295E+00  0.3663E+01
   1.665  0.2280E+00  0.3666E+01
   1.675  0.2265E+00  0.3668E+01
   1.685  0.2250E+00  0.3670E+01
   1.695  0.2235E+00  0.3672E+01
   1.705  0.2220E+00  0.3675E+01
   1.715  0.2205E+00  0.3677E+01
   1.725  0.2190E+00  0.3679E+01
   1.735  0.2176E+00  0.3681E+01
   1.745  0.2162E+00  0.3683E+01
   1.755  0.2159E+00  0.3685E+01
   1.765  0.2249E+00  0.3688E+01
   1.775  0.2374E+00  0.3690E+01
   1.785  0.2534E+00  0.3692E+01
   1.795  0.2730E+00  0.3695E+01
   1.805  0.2961E+00  0.3698E+01
   1.815  0.3227E+00  0.3701E+01
   1.825  0.3528E+00  0.3704E+01
   1.835  0.3868E+00  0.3708E+01
   1.845  0.4252E+00  0.3712E+01
   1.855  0.4677E+00  0.3717E+01
   1.865  0.5042E+00  0.3721E+01
   1.875  0.5408E+00  0.3727E+01
   1.885  0.5773E+00  0.3732E+01
   1.895  0.6138E+00  0.3738E+01
   1.905  0.6504E+00  0.3744E+01
   1.915  0.6869E+00  0.3751E+01
   1.925  0.7235E+00  0.3758E+01
   1.935  0.7600E+00  0.3766E+01
   1.945  0.7965E+00  0.3773E+01
   1.955  0.8331E+00  0.3782E+01
   1.965  0.8675E+00  0.3790E+01
   1.975  0.9007E+00  0.3799E+01
   1.985  0.9332E+00  0.3808E+01
   1.995  0.9649E+00  0.3818E+01
   2.005  0.9960E+00  0.3827E+01
   2.015  0.1026E+01  0.3838E+01
   2.025  0.1056E+01  0.3848E+01
   2.035  0.1085E+01  0.3859E+01
   2.045  0.1113E+01  0.3870E+01
   2.055  0.1141E+01  0.3881E+01
   2.065  0.1170E+01  0.3892E+01
   2.075  0.1198E+01  0.3904E+01
   2.085  0.1226E+01  0.3916E+01
   2.095  0.1253E+01  0.3929E+01
   2.105  0.1281E+01  0.3941E+01
   2.115  0.1364E+01  0.3954E+01
   2.125  0.1415E+01  0.3968E+01
   2.135  0.1435E+01  0.3983E+01
   2.145  0.1449E+01  0.3997E+01
   2.155  0.1456E+01  0.4012E+01
   2.165  0.1458E+01  0.4026E+01
   2.175  0.1454E+01  0.4041E+01
   2.185  0.1430E+01  0.4055E+01
   2.195  0.1401E+01  0.4069E+01
   2.205  0.1370E+01  0.4083E+01
   2.215  0.1337E+01  0.4097E+01
   2.225  0.1303E+01  0.4110E+01
   2.235  0.1266E+01  0.4123E+01
   2.245  0.1227E+01  0.4135E+01
   2.255  0.1185E+01  0.4147E+01
   2.265  0.1142E+01  0.4159E+01
   2.275  0.1108E+01  0.4170E+01
   2.285  0.1081E+01  0.4181E+01
   2.295  0.1059E+01  0.4192E+01
   2.305  0.1043E+01  0.4202E+01
   2.315  0.1031E+01  0.4213E+01
   2.325  0.1026E+01  0.4223E+01
   2.335  0.1025E+01  0.4233E+01
   2.345  0.1025E+01  0.4244E+01
   2.355  0.1024E+01  0.4254E+01
   2.365  0.1024E+01  0.4264E+01
   2.375  0.1024E+01  0.4274E+01
   2.385  0.1025E+01  0.4284E+01
   2.395  0.1025E+01  0.4295E+01
   2.405  0.1026E+01  0.4305E+01
   2.415  0.1028E+01  0.4315E+01
   2.425  0.1027E+01  0.4326E+01
   2.435  0.1027E+01  0.4336E+01
   2.445  0.1027E+01  0.4346E+01
   2.455  0.1028E+01  0.4356E+01
   2.465  0.1028E+01  0.4367E+01
   2.475  0.1028E+01  0.4377E+01
   2.485  0.1029E+01  0.4387E+01
   2.495  0.1030E+01  0.4397E+01
   2.505  0.1031E+01  0.4408E+01
   2.515  0.1032E+01  0.4418E+01
   2.525  0.1033E+01  0.4428E+01
   2.535  0.1034E+01  0.4439E+01
   2.545  0.1035E+01  0.4449E+01
   2.555  0.1037E+01  0.4459E+01
   2.565  0.1038E+01  0.4470E+01
   2.575  0.1040E+01  0.4480E+01
   2.585  0.1041E+01  0.4491E+01
   2.595  0.1043E+01  0.4501E+01
   2.605  0.1045E+01  0.4511E+01
   2.615  0.1046E+01  0.4522E+01
   2.625  0.1048E+01  0.4532E+01
   2.635  0.1050E+01  0.4543E+01
   2.645  0.1052E+01  0.4553E+01
   2.655  0.1050E+01  0.4564E+01
   2.665  0.1041E+01  0.4574E+01
   2.675  0.1034E+01  0.4585E+01
   2.685  0.1034E+01  0.4595E+01
   2.695  0.1034E+01  0.4605E+01
   2.705  0.1035E+01  0.4616E+01
   2.715  0.1036E+01  0.4626E+01
   2.725  0.1037E+01  0.4637E+01
   2.735  0.1039E+01  0.4647E+01
   2.745  0.1040E+01  0.4657E+01
   2.755  0.1042E+01  0.4668E+01
   2.765  0.1044E+01  0.4678E+01
   2.775  0.1046E+01  0.4689E+01
   2.785  0.1049E+01  0.4699E+01
   2.795  0.1052E+01  0.4710E+01
   2.805  0.1055E+01  0.4720E+01
   2.815  0.1058E+01  0.4731E+01
   2.825  0.1062E+01  0.4741E+01
   2.835  0.1262E+01  0.4752E+01
   2.845  0.1315E+01  0.4766E+01
   2.855  0.1154E+01  0.4778E+01
   2.865  0.1143E+01  0.4789E+01
   2.875  0.1129E+01  0.4801E+01
   2.885  0.1114E+01  0.4812E+01
   2.895  0.1104E+01  0.4823E+01
   2.905  0.1108E+01  0.4834E+01
   2.915  0.1112E+01  0.4845E+01
   2.925  0.1117E+01  0.4856E+01
   2.935  0.1123E+01  0.4867E+01
   2.945  0.1129E+01  0.4879E+01
   2.955  0.1135E+01  0.4890E+01
   2.965  0.1142E+01  0.4901E+01
   2.975  0.1150E+01  0.4913E+01
   2.985  0.1158E+01  0.4924E+01
   2.995  0.1166E+01  0.4936E+01
   3.005  0.1175E+01  0.4948E+01
   3.015  0.1185E+01  0.4959E+01
   3.025  0.1195E+01  0.4971E+01
   3.035  0.1205E+01  0.4983E+01
   3.045  0.1216E+01  0.4995E+01
   3.055  0.1228E+01  0.5008E+01
   3.065  0.1240E+01  0.5020E+01
   3.075  0.1253E+01  0.5032E+01
   3.085  0.1266E+01  0.5045E+01
   3.095  0.1279E+01  0.5058E+01
   3.105  0.1294E+01  0.5071E+01
   3.115  0.1308E+01  0.5084E+01
   3.125  0.1323E+01  0.5097E+01
   3.135  0.1337E+01  0.5110E+01
   3.145  0.1349E+01  0.5124E+01
   3.155  0.1362E+01  0.5137E+01
   3.165  0.1372E+01  0.5151E+01
   3.175  0.1383E+01  0.5165E+01
   3.185  0.1395E+01  0.5178E+01
   3.195  0.1406E+01  0.5192E+01
   3.205  0.1419E+01  0.5207E+01
   3.215  0.1432E+01  0.5221E+01
   3.225  0.1449E+01  0.5235E+01
   3.235  0.1468E+01  0.5250E+01
   3.245  0.1488E+01  0.5265E+01
   3.255  0.1510E+01  0.5280E+01
   3.265  0.1564E+01  0.5295E+01
   3.275  0.1620E+01  0.5311E+01
   3.285  0.1654E+01  0.5327E+01
   3.295  0.1664E+01  0.5344E+01
   3.305  0.1652E+01  0.5360E+01
   3.315  0.1651E+01  0.5377E+01
   3.325  0.1649E+01  0.5393E+01
   3.335  0.1645E+01  0.5410E+01
   3.345  0.1640E+01  0.5426E+01
   3.355  0.1632E+01  0.5443E+01
   3.365  0.1623E+01  0.5459E+01
   3.375  0.1613E+01  0.5475E+01
   3.385  0.1597E+01  0.5491E+01
   3.395  0.1564E+01  0.5507E+01
   3.405  0.1537E+01  0.5523E+01
   3.415  0.1516E+01  0.5538E+01
   3.425  0.1500E+01  0.5553E+01
   3.435  0.1490E+01  0.5568E+01
   3.445  0.1481E+01  0.5583E+01
   3.455  0.1465E+01  0.5597E+01
   3.465  0.1453E+01  0.5612E+01
   3.475  0.1443E+01  0.5626E+01
   3.485  0.1438E+01  0.5641E+01
   3.495  0.1435E+01  0.5655E+01
   3.505  0.1433E+01  0.5670E+01
   3.515  0.1432E+01  0.5684E+01
   3.525  0.1432E+01  0.5698E+01
   3.535  0.1432E+01  0.5713E+01
   3.545  0.1432E+01  0.5727E+01
   3.555  0.1433E+01  0.5741E+01
   3.565  0.1434E+01  0.5755E+01
   3.575  0.1436E+01  0.5770E+01
   3.585  0.1437E+01  0.5784E+01
   3.595  0.1438E+01  0.5799E+01
   3.605  0.1439E+01  0.5813E+01
   3.615  0.1440E+01  0.5827E+01
   3.625  0.1441E+01  0.5842E+01
   3.635  0.1442E+01  0.5856E+01
   3.645  0.1443E+01  0.5871E+01
   3.655  0.1450E+01  0.5885E+01
   3.665  0.1465E+01  0.5900E+01
   3.675  0.1483E+01  0.5914E+01
   3.685  0.1504E+01  0.5929E+01
   3.695  0.1526E+01  0.5944E+01
   3.705  0.1498E+01  0.5960E+01
   3.715  0.1485E+01  0.5975E+01
   3.725  0.1481E+01  0.5989E+01
   3.735  0.1476E+01  0.6004E+01
   3.745  0.1471E+01  0.6019E+01
   3.755  0.1467E+01  0.6034E+01
   3.765  0.1462E+01  0.6048E+01
   3.775  0.1458E+01  0.6063E+01
   3.785  0.1454E+01  0.6077E+01
   3.795  0.1450E+01  0.6092E+01
   3.805  0.1446E+01  0.6106E+01
   3.815  0.1442E+01  0.6121E+01
   3.825  0.1439E+01  0.6135E+01
   3.835  0.1435E+01  0.6150E+01
   3.845  0.1431E+01  0.6164E+01
   3.855  0.1428E+01  0.6178E+01
   3.865  0.1425E+01  0.6193E+01
   3.875  0.1422E+01  0.6207E+01
   3.885  0.1419E+01  0.6221E+01
   3.895  0.1415E+01  0.6235E+01
   3.905  0.1411E+01  0.6249E+01
   3.915  0.1408E+01  0.6263E+01
   3.925  0.1405E+01  0.6277E+01
   3.935  0.1403E+01  0.6292E+01
   3.945  0.1400E+01  0.6306E+01
   3.955  0.1398E+01  0.6320E+01
   3.965  0.1396E+01  0.6333E+01
   3.975  0.1394E+01  0.6347E+01
   3.985  0.1392E+01  0.6361E+01
   3.995  0.1390E+01  0.6375E+01
   4.005  0.1388E+01  0.6389E+01
   4.015  0.1386E+01  0.6403E+01
   4.025  0.1401E+01  0.6417E+01
   4.035  0.1424E+01  0.6431E+01
   4.045  0.1453E+01  0.6445E+01
   4.055  0.1474E+01  0.6460E+01
   4.065  0.1489E+01  0.6475E+01
   4.075  0.1495E+01  0.6490E+01
   4.085  0.1491E+01  0.6505E+01
   4.095  0.1480E+01  0.6520E+01
   4.105  0.1463E+01  0.6534E+01
   4.115  0.1439E+01  0.6549E+01
   4.125  0.1408E+01  0.6563E+01
   4.135  0.1386E+01  0.6577E+01
   4.145  0.1366E+01  0.6591E+01
   4.155  0.1353E+01  0.6604E+01
   4.165  0.1347E+01  0.6618E+01
   4.175  0.1342E+01  0.6631E+01
   4.185  0.1338E+01  0.6645E+01
   4.195  0.1333E+01  0.6658E+01
   4.205  0.1329E+01  0.6671E+01
   4.215  0.1325E+01  0.6685E+01
   4.225  0.1321E+01  0.6698E+01
   4.235  0.1317E+01  0.6711E+01
   4.245  0.1313E+01  0.6724E+01
   4.255  0.1310E+01  0.6737E+01
   4.265  0.1307E+01  0.6750E+01
   4.275  0.1303E+01  0.6763E+01
   4.285  0.1301E+01  0.6776E+01
   4.295  0.1299E+01  0.6789E+01
   4.305  0.1309E+01  0.6803E+01
   4.315  0.1317E+01  0.6816E+01
   4.325  0.1324E+01  0.6829E+01
   4.335  0.1329E+01  0.6842E+01
   4.345  0.1332E+01  0.6855E+01
   4.355  0.1333E+01  0.6869E+01
   4.365  0.1334E+01  0.6882E+01
   4.375  0.1332E+01  0.6895E+01
   4.385  0.1328E+01  0.6909E+01
   4.395  0.1323E+01  0.6922E+01
   4.405  0.1317E+01  0.6935E+01
   4.415  0.1308E+01  0.6948E+01
   4.425  0.1299E+01  0.6961E+01
   4.435  0.1293E+01  0.6974E+01
   4.445  0.1289E+01  0.6987E+01
   4.455  0.1285E+01  0.7000E+01
   4.465  0.1281E+01  0.7013E+01
   4.475  0.1277E+01  0.7026E+01
   4.485  0.1273E+01  0.7038E+01
   4.495  0.1268E+01  0.7051E+01
   4.505  0.1264E+01  0.7064E+01
   4.515  0.1260E+01  0.7076E+01
   4.525  0.1255E+01  0.7089E+01
   4.535  0.1251E+01  0.7102E+01
   4.545  0.1246E+01  0.7114E+01
   4.555  0.1241E+01  0.7126E+01
   4.565  0.1237E+01  0.7139E+01
   4.575  0.1232E+01  0.7151E+01
   4.585  0.1227E+01  0.7163E+01
   4.595  0.1222E+01  0.7176E+01
   4.605  0.1217E+01  0.7188E+01
   4.615  0.1212E+01  0.7200E+01
   4.625  0.1207E+01  0.7212E+01
   4.635  0.1202E+01  0.7224E+01
   4.645  0.1197E+01  0.7236E+01
   4.655  0.1191E+01  0.7248E+01
   4.665  0.1196E+01  0.7260E+01
   4.675  0.1205E+01  0.7272E+01
   4.685  0.1217E+01  0.7284E+01
   4.695  0.1226E+01  0.7296E+01
   4.705  0.1223E+01  0.7309E+01
   4.715  0.1220E+01  0.7321E+01
   4.725  0.1216E+01  0.7333E+01
   4.735  0.1211E+01  0.7345E+01
   4.745  0.1205E+01  0.7357E+01
   4.755  0.1199E+01  0.7369E+01
   4.765  0.1191E+01  0.7381E+01
   4.775  0.1182E+01  0.7393E+01
   4.785  0.1173E+01  0.7405E+01
   4.795  0.1167E+01  0.7417E+01
   4.805  0.1161E+01  0.7428E+01
   4.815  0.1153E+01  0.7440E+01
   4.825  0.1144E+01  0.7451E+01
   4.835  0.1134E+01  0.7463E+01
   4.845  0.1122E+01  0.7474E+01
   4.855  0.1110E+01  0.7485E+01
   4.865  0.1092E+01  0.7496E+01
   4.875  0.1073E+01  0.7507E+01
   4.885  0.1052E+01  0.7518E+01
   4.895  0.1031E+01  0.7528E+01
   4.905  0.1007E+01  0.7538E+01
   4.915  0.9834E+00  0.7548E+01
   4.925  0.9592E+00  0.7558E+01
   4.935  0.9348E+00  0.7567E+01
   4.945  0.9101E+00  0.7577E+01
   4.955  0.8868E+00  0.7586E+01
   4.965  0.8653E+00  0.7594E+01
   4.975  0.8521E+00  0.7603E+01
   4.985  0.8398E+00  0.7611E+01
   4.995  0.8305E+00  0.7620E+01
   5.005  0.8224E+00  0.7628E+01
   5.015  0.8146E+00  0.7636E+01
   5.025  0.8062E+00  0.7644E+01
   5.035  0.7964E+00  0.7652E+01
   5.045  0.7854E+00  0.7660E+01
   5.055  0.7731E+00  0.7668E+01
   5.065  0.7595E+00  0.7676E+01
   5.075  0.7445E+00  0.7683E+01
   5.085  0.7283E+00  0.7690E+01
   5.095  0.7108E+00  0.7698E+01
   5.105  0.6920E+00  0.7705E+01
   5.115  0.6719E+00  0.7712E+01
   5.125  0.6529E+00  0.7718E+01
   5.135  0.6402E+00  0.7725E+01
   5.145  0.6273E+00  0.7731E+01
   5.155  0.6143E+00  0.7737E+01
   5.165  0.6012E+00  0.7743E+01
   5.175  0.5922E+00  0.7749E+01
   5.185  0.5835E+00  0.7755E+01
   5.195  0.5743E+00  0.7761E+01
   5.205  0.5665E+00  0.7767E+01
   5.215  0.5608E+00  0.7772E+01
   5.225  0.5551E+00  0.7778E+01
   5.235  0.5317E+00  0.7783E+01
   5.245  0.5266E+00  0.7788E+01
   5.255  0.5215E+00  0.7794E+01
   5.265  0.5162E+00  0.7799E+01
   5.275  0.5109E+00  0.7804E+01
   5.285  0.5054E+00  0.7809E+01
   5.295  0.4996E+00  0.7814E+01
   5.305  0.4921E+00  0.7819E+01
   5.315  0.4847E+00  0.7824E+01
   5.325  0.4773E+00  0.7829E+01
   5.335  0.4700E+00  0.7834E+01
   5.345  0.4627E+00  0.7838E+01
   5.355  0.4554E+00  0.7843E+01
   5.365  0.4481E+00  0.7847E+01
   5.375  0.4409E+00  0.7852E+01
   5.385  0.4338E+00  0.7856E+01
   5.395  0.4266E+00  0.7860E+01
   5.405  0.4195E+00  0.7865E+01
   5.415  0.4124E+00  0.7869E+01
   5.425  0.4054E+00  0.7873E+01
   5.435  0.3984E+00  0.7877E+01
   5.445  0.3914E+00  0.7881E+01
   5.455  0.3845E+00  0.7885E+01
   5.465  0.3776E+00  0.7889E+01
   5.475  0.3707E+00  0.7892E+01
   5.485  0.3639E+00  0.7896E+01
   5.495  0.3571E+00  0.7900E+01
   5.505  0.3503E+00  0.7903E+01
   5.515  0.3436E+00  0.7907E+01
   5.525  0.3369E+00  0.7910E+01
   5.535  0.3303E+00  0.7913E+01
   5.545  0.3236E+00  0.7917E+01
   5.555  0.3171E+00  0.7920E+01
   5.565  0.3100E+00  0.7923E+01
   5.575  0.3020E+00  0.7926E+01
   5.585  0.2936E+00  0.7929E+01
   5.595  0.2849E+00  0.7932E+01
   5.605  0.2758E+00  0.7935E+01
   5.615  0.2663E+00  0.7937E+01
   5.625  0.2565E+00  0.7940E+01
   5.635  0.2463E+00  0.7943E+01
   5.645  0.2384E+00  0.7945E+01
   5.655  0.2334E+00  0.7947E+01
   5.665  0.2284E+00  0.7950E+01
   5.675  0.2234E+00  0.7952E+01
   5.685  0.2184E+00  0.7954E+01
   5.695  0.2133E+00  0.7956E+01
   5.705  0.2082E+00  0.7958E+01
   5.715  0.2031E+00  0.7960E+01
   5.725  0.1979E+00  0.7962E+01
   5.735  0.1928E+00  0.7964E+01
   5.745  0.1876E+00  0.7966E+01
   5.755  0.1824E+00  0.7968E+01
   5.765  0.1771E+00  0.7970E+01
   5.775  0.1719E+00  0.7972E+01
   5.785  0.1666E+00  0.7973E+01
   5.795  0.1612E+00  0.7975E+01
   5.805  0.1559E+00  0.7977E+01
   5.815  0.1505E+00  0.7978E+01
   5.825  0.1451E+00  0.7980E+01
   5.835  0.1397E+00  0.7981E+01
   5.845  0.1343E+00  0.7982E+01
   5.855  0.1288E+00  0.7984E+01
   5.865  0.1233E+00  0.7985E+01
   5.875  0.1178E+00  0.7986E+01
   5.885  0.1123E+00  0.7987E+01
   5.895  0.1067E+00  0.7988E+01
   5.905  0.1011E+00  0.7989E+01
   5.915  0.9550E-01  0.7990E+01
   5.925  0.8986E-01  0.7991E+01
   5.935  0.8420E-01  0.7992E+01
   5.945  0.8918E-01  0.7993E+01
   5.955  0.1650E+00  0.7994E+01
   5.965  0.1203E+00  0.7996E+01
   5.975  0.5838E-01  0.7997E+01
   5.985  0.5172E-01  0.7997E+01
   5.995  0.4546E-01  0.7998E+01
   6.005  0.3961E-01  0.7998E+01
   6.015  0.3416E-01  0.7999E+01
   6.025  0.2911E-01  0.7999E+01
   6.035  0.2447E-01  0.7999E+01
   6.045  0.2023E-01  0.7999E+01
   6.055  0.1639E-01  0.8000E+01
   6.065  0.1296E-01  0.8000E+01
   6.075  0.9929E-02  0.8000E+01
   6.085  0.7301E-02  0.8000E+01
   6.095  0.5076E-02  0.8000E+01
   6.105  0.3255E-02  0.8000E+01
   6.115  0.1836E-02  0.8000E+01
   6.125  0.8211E-03  0.8000E+01
   6.135  0.2090E-03  0.8000E+01
   6.145  0.6721E-07  0.8000E+01
   6.155  0.0000E+00  0.8000E+01
   6.165  0.0000E+00  0.8000E+01
   6.175  0.0000E+00  0.8000E+01
   6.185  0.0000E+00  0.8000E+01
   6.195  0.0000E+00  0.8000E+01
   6.205  0.0000E+00  0.8000E+01
   6.215  0.0000E+00  0.8000E+01
   6.225  0.0000E+00  0.8000E+01
   6.235  0.0000E+00  0.8000E+01
   6.245  0.0000E+00  0.8000E+01
   6.255  0.0000E+00  0.8000E+01
   6.265  0.0000E+00  0.8000E+01
   6.275  0.0000E+00  0.8000E+01
   6.285  0.0000E+00  0.8000E+01
   6.295  0.0000E+00  0.8000E+01
   6.305  0.0000E+00  0.8000E+01
   6.315  0.0000E+00  0.8000E+01
   6.325  0.0000E+00  0.8000E+01
   6.335  0.0000E+00  0.8000E+01
   6.345  0.0000E+00  0.8000E+01
   6.355  0.0000E+00  0.8000E+01
   6.365  0.0000E+00  0.8000E+01
   6.375  0.0000E+00  0.8000E+01
   6.385  0.0000E+00  0.8000E+01
   6.395  0.0000E+00  0.8000E+01
   6.405  0.0000E+00  0.8000E+01
   6.415  0.0000E+00  0.8000E+01
   6.425  0.0000E+00  0.8000E+01
   6.435  0.0000E+00  0.8000E+01
   6.445  0.0000E+00  0.8000E+01
   6.455  0.0000E+00  0.8000E+01
   6.465  0.0000E+00  0.8000E+01
   6.475  0.0000E+00  0.8000E+01
   6.485  0.0000E+00  0.8000E+01
   6.495  0.0000E+00  0.8000E+01
   6.505  0.0000E+00  0.8000E+01
   6.515  0.0000E+00  0.8000E+01
   6.525  0.0000E+00  0.8000E+01
   6.535  0.0000E+00  0.8000E+01
   6.545  0.0000E+00  0.8000E+01
   6.555  0.0000E+00  0.8000E+01
   6.565  0.0000E+00  0.8000E+01
   6.575  0.0000E+00  0.8000E+01
   6.585  0.0000E+00  0.8000E+01
   6.595  0.0000E+00  0.8000E+01
   6.605  0.0000E+00  0.8000E+01
   6.615  0.0000E+00  0.8000E+01
   6.625  0.9539E-04  0.8000E+01
   6.635  0.5847E-03  0.8000E+01
   6.645  0.1489E-02  0.8000E+01
   6.655  0.2810E-02  0.8000E+01
   6.665  0.4545E-02  0.8000E+01
   6.675  0.6696E-02  0.8000E+01
   6.685  0.9263E-02  0.8000E+01
   6.695  0.1225E-01  0.8000E+01
   6.705  0.1564E-01  0.8000E+01
   6.715  0.1946E-01  0.8001E+01
   6.725  0.2368E-01  0.8001E+01
   6.735  0.2833E-01  0.8001E+01
   6.745  0.3341E-01  0.8001E+01
   6.755  0.3916E-01  0.8002E+01
   6.765  0.4566E-01  0.8002E+01
   6.775  0.5290E-01  0.8003E+01
   6.785  0.6090E-01  0.8003E+01
   6.795  0.6964E-01  0.8004E+01
   6.805  0.7912E-01  0.8005E+01
   6.815  0.8936E-01  0.8005E+01
   6.825  0.1003E+00  0.8006E+01
   6.835  0.1121E+00  0.8008E+01
   6.845  0.1246E+00  0.8009E+01
   6.855  0.1331E+00  0.8010E+01
   6.865  0.1361E+00  0.8011E+01
   6.875  0.1391E+00  0.8013E+01
   6.885  0.1422E+00  0.8014E+01
   6.895  0.1454E+00  0.8016E+01
   6.905  0.1487E+00  0.8017E+01
   6.915  0.1520E+00  0.8019E+01
   6.925  0.1556E+00  0.8020E+01
   6.935  0.1596E+00  0.8022E+01
   6.945  0.1638E+00  0.8023E+01
   6.955  0.1682E+00  0.8025E+01
   6.965  0.1730E+00  0.8027E+01
   6.975  0.1781E+00  0.8028E+01
   6.985  0.1834E+00  0.8030E+01
   6.995  0.1891E+00  0.8032E+01
   7.005  0.1950E+00  0.8034E+01
   7.015  0.2012E+00  0.8036E+01
   7.025  0.2077E+00  0.8038E+01
   7.035  0.2144E+00  0.8040E+01
   7.045  0.2215E+00  0.8042E+01
   7.055  0.2288E+00  0.8045E+01
   7.065  0.2365E+00  0.8047E+01
   7.075  0.2443E+00  0.8049E+01
   7.085  0.2524E+00  0.8052E+01
   7.095  0.2606E+00  0.8054E+01
   7.105  0.2659E+00  0.8057E+01
   7.115  0.2709E+00  0.8060E+01
   7.125  0.2758E+00  0.8062E+01
   7.135  0.2809E+00  0.8065E+01
   7.145  0.2859E+00  0.8068E+01
   7.155  0.2911E+00  0.8071E+01
   7.165  0.2963E+00  0.8074E+01
   7.175  0.3015E+00  0.8077E+01
   7.185  0.3068E+00  0.8080E+01
   7.195  0.3121E+00  0.8083E+01
   7.205  0.3175E+00  0.8086E+01
   7.215  0.3230E+00  0.8089E+01
   7.225  0.3285E+00  0.8093E+01
   7.235  0.3340E+00  0.8096E+01
   7.245  0.3397E+00  0.8099E+01
   7.255  0.3453E+00  0.8103E+01
   7.265  0.3510E+00  0.8106E+01
   7.275  0.3568E+00  0.8110E+01
   7.285  0.3626E+00  0.8113E+01
   7.295  0.3684E+00  0.8117E+01
   7.305  0.3742E+00  0.8121E+01
   7.315  0.3801E+00  0.8124E+01
   7.325  0.3860E+00  0.8128E+01
   7.335  0.3919E+00  0.8132E+01
   7.345  0.3978E+00  0.8136E+01
   7.355  0.4039E+00  0.8140E+01
   7.365  0.4103E+00  0.8144E+01
   7.375  0.4169E+00  0.8148E+01
   7.385  0.4237E+00  0.8152E+01
   7.395  0.4308E+00  0.8157E+01
   7.405  0.4381E+00  0.8161E+01
   7.415  0.4456E+00  0.8166E+01
   7.425  0.4534E+00  0.8170E+01
   7.435  0.4614E+00  0.8175E+01
   7.445  0.4696E+00  0.8179E+01
   7.455  0.4781E+00  0.8184E+01
   7.465  0.4868E+00  0.8189E+01
   7.475  0.4957E+00  0.8194E+01
   7.485  0.5048E+00  0.8199E+01
   7.495  0.5142E+00  0.8204E+01
   7.505  0.5238E+00  0.8209E+01
   7.515  0.5334E+00  0.8214E+01
   7.525  0.5433E+00  0.8220E+01
   7.535  0.5539E+00  0.8225E+01
   7.545  0.5655E+00  0.8231E+01
   7.555  0.5782E+00  0.8236E+01
   7.565  0.5919E+00  0.8242E+01
   7.575  0.6068E+00  0.8248E+01
   7.585  0.6227E+00  0.8254E+01
   7.595  0.6397E+00  0.8261E+01
   7.605  0.6579E+00  0.8267E+01
   7.615  0.1076E+01  0.8276E+01
   7.625  0.6397E+00  0.8283E+01
   7.635  0.6458E+00  0.8289E+01
   7.645  0.6521E+00  0.8296E+01
   7.655  0.6586E+00  0.8302E+01
   7.665  0.6653E+00  0.8309E+01
   7.675  0.6722E+00  0.8316E+01
   7.685  0.6793E+00  0.8323E+01
   7.695  0.6865E+00  0.8329E+01
   7.705  0.6939E+00  0.8336E+01
   7.715  0.7014E+00  0.8343E+01
   7.725  0.7091E+00  0.8350E+01
   7.735  0.7169E+00  0.8357E+01
   7.745  0.7248E+00  0.8365E+01
   7.755  0.7329E+00  0.8372E+01
   7.765  0.7411E+00  0.8379E+01
   7.775  0.7495E+00  0.8387E+01
   7.785  0.7580E+00  0.8394E+01
   7.795  0.7666E+00  0.8402E+01
   7.805  0.7754E+00  0.8410E+01
   7.815  0.7843E+00  0.8417E+01
   7.825  0.7933E+00  0.8425E+01
   7.835  0.8024E+00  0.8433E+01
   7.845  0.8117E+00  0.8441E+01
   7.855  0.8222E+00  0.8449E+01
   7.865  0.8332E+00  0.8458E+01
   7.875  0.8450E+00  0.8466E+01
   7.885  0.8573E+00  0.8475E+01
   7.895  0.8703E+00  0.8483E+01
   7.905  0.8838E+00  0.8492E+01
   7.915  0.8978E+00  0.8501E+01
   7.925  0.9124E+00  0.8510E+01
   7.935  0.9275E+00  0.8519E+01
   7.945  0.9432E+00  0.8529E+01
   7.955  0.9595E+00  0.8538E+01
   7.965  0.9762E+00  0.8548E+01
   7.975  0.9936E+00  0.8558E+01
   7.985  0.1011E+01  0.8568E+01
   7.995  0.1030E+01  0.8578E+01
   8.005  0.1049E+01  0.8588E+01
   8.015  0.1068E+01  0.8599E+01
   8.025  0.1088E+01  0.8610E+01
   8.035  0.1109E+01  0.8621E+01
   8.045  0.1130E+01  0.8632E+01
   8.055  0.1152E+01  0.8643E+01
   8.065  0.1174E+01  0.8655E+01
   8.075  0.1196E+01  0.8667E+01
   8.085  0.1220E+01  0.8679E+01
   8.095  0.1244E+01  0.8691E+01
   8.105  0.1268E+01  0.8704E+01
   8.115  0.1293E+01  0.8716E+01
   8.125  0.1320E+01  0.8729E+01
   8.135  0.1348E+01  0.8743E+01
   8.145  0.1378E+01  0.8756E+01
   8.155  0.1408E+01  0.8770E+01
   8.165  0.1440E+01  0.8785E+01
   8.175  0.1472E+01  0.8799E+01
   8.185  0.1505E+01  0.8814E+01
   8.195  0.1539E+01  0.8829E+01
   8.205  0.1575E+01  0.8845E+01
   8.215  0.1611E+01  0.8861E+01
   8.225  0.1676E+01  0.8877E+01
   8.235  0.1767E+01  0.8894E+01
   8.245  0.1827E+01  0.8912E+01
   8.255  0.1858E+01  0.8931E+01
   8.265  0.1859E+01  0.8949E+01
   8.275  0.1842E+01  0.8968E+01
   8.285  0.1827E+01  0.8986E+01
   8.295  0.1900E+01  0.9005E+01
   8.305  0.1979E+01  0.9024E+01
   8.315  0.2030E+01  0.9044E+01
   8.325  0.2049E+01  0.9065E+01
   8.335  0.2055E+01  0.9085E+01
   8.345  0.2060E+01  0.9106E+01
   8.355  0.2064E+01  0.9126E+01
   8.365  0.2069E+01  0.9147E+01
   8.375  0.2073E+01  0.9168E+01
   8.385  0.2077E+01  0.9189E+01
   8.395  0.2081E+01  0.9209E+01
   8.405  0.2082E+01  0.9230E+01
   8.415  0.2082E+01  0.9251E+01
   8.425  0.2082E+01  0.9272E+01
   8.435  0.2083E+01  0.9293E+01
   8.445  0.2083E+01  0.9314E+01
   8.455  0.2082E+01  0.9334E+01
   8.465  0.2078E+01  0.9355E+01
   8.475  0.2073E+01  0.9376E+01
   8.485  0.2066E+01  0.9397E+01
   8.495  0.2058E+01  0.9417E+01
   8.505  0.2050E+01  0.9438E+01
   8.515  0.2043E+01  0.9458E+01
   8.525  0.2034E+01  0.9479E+01
   8.535  0.2021E+01  0.9499E+01
   8.545  0.2008E+01  0.9519E+01
   8.555  0.1994E+01  0.9539E+01
   8.565  0.1979E+01  0.9559E+01
   8.575  0.1963E+01  0.9579E+01
   8.585  0.1946E+01  0.9598E+01
   8.595  0.1929E+01  0.9618E+01
   8.605  0.1911E+01  0.9637E+01
   8.615  0.1891E+01  0.9656E+01
   8.625  0.1871E+01  0.9675E+01
   8.635  0.1850E+01  0.9693E+01
   8.645  0.1829E+01  0.9712E+01
   8.655  0.1806E+01  0.9730E+01
   8.665  0.1794E+01  0.9748E+01
   8.675  0.1769E+01  0.9766E+01
   8.685  0.1744E+01  0.9783E+01
   8.695  0.1717E+01  0.9800E+01
   8.705  0.1690E+01  0.9817E+01
   8.715  0.1662E+01  0.9834E+01
   8.725  0.1634E+01  0.9851E+01
   8.735  0.1604E+01  0.9867E+01
   8.745  0.1575E+01  0.9883E+01
   8.755  0.1536E+01  0.9898E+01
   8.765  0.1494E+01  0.9913E+01
   8.775  0.1449E+01  0.9928E+01
   8.785  0.1404E+01  0.9942E+01
   8.795  0.1355E+01  0.9956E+01
   8.805  0.1302E+01  0.9970E+01
   8.815  0.1245E+01  0.9982E+01
   8.825  0.1180E+01  0.9994E+01
   8.835  0.1113E+01  0.1001E+02
   8.845  0.1052E+01  0.1002E+02
   8.855  0.9964E+00  0.1003E+02
   8.865  0.9530E+00  0.1004E+02
   8.875  0.9203E+00  0.1005E+02
   8.885  0.8893E+00  0.1006E+02
   8.895  0.8602E+00  0.1006E+02
   8.905  0.8328E+00  0.1007E+02
   8.915  0.8071E+00  0.1008E+02
   8.925  0.7832E+00  0.1009E+02
   8.935  0.7611E+00  0.1010E+02
   8.945  0.7407E+00  0.1010E+02
   8.955  0.7221E+00  0.1011E+02
   8.965  0.7070E+00  0.1012E+02
   8.975  0.6945E+00  0.1013E+02
   8.985  0.6832E+00  0.1013E+02
   8.995  0.6731E+00  0.1014E+02
   9.005  0.6641E+00  0.1015E+02
   9.015  0.6563E+00  0.1015E+02
   9.025  0.6503E+00  0.1016E+02
   9.035  0.6475E+00  0.1017E+02
   9.045  0.6448E+00  0.1017E+02
   9.055  0.6423E+00  0.1018E+02
   9.065  0.6399E+00  0.1018E+02
   9.075  0.6375E+00  0.1019E+02
   9.085  0.6357E+00  0.1020E+02
   9.095  0.6345E+00  0.1020E+02
   9.105  0.6338E+00  0.1021E+02
   9.115  0.6341E+00  0.1022E+02
   9.125  0.6351E+00  0.1022E+02
   9.135  0.6369E+00  0.1023E+02
   9.145  0.6393E+00  0.1024E+02
   9.155  0.6425E+00  0.1024E+02
   9.165  0.6512E+00  0.1025E+02
   9.175  0.6631E+00  0.1025E+02
   9.185  0.6766E+00  0.1026E+02
   9.195  0.6917E+00  0.1027E+02
   9.205  0.7085E+00  0.1028E+02
   9.215  0.7270E+00  0.1028E+02
   9.225  0.7475E+00  0.1029E+02
   9.235  0.7700E+00  0.1030E+02
   9.245  0.7944E+00  0.1031E+02
   9.255  0.8211E+00  0.1031E+02
   9.265  0.8502E+00  0.1032E+02
   9.275  0.8811E+00  0.1033E+02
   9.285  0.9137E+00  0.1034E+02
   9.295  0.9480E+00  0.1035E+02
   9.305  0.9841E+00  0.1036E+02
   9.315  0.1022E+01  0.1037E+02
   9.325  0.1061E+01  0.1038E+02
   9.335  0.1103E+01  0.1039E+02
   9.345  0.1144E+01  0.1040E+02
   9.355  0.1187E+01  0.1041E+02
   9.365  0.1252E+01  0.1042E+02
   9.375  0.1329E+01  0.1044E+02
   9.385  0.1417E+01  0.1045E+02
   9.395  0.1605E+01  0.1047E+02
   9.405  0.1786E+01  0.1048E+02
   9.415  0.1905E+01  0.1050E+02
   9.425  0.1965E+01  0.1052E+02
   9.435  0.2041E+01  0.1054E+02
   9.445  0.2126E+01  0.1056E+02
   9.455  0.2225E+01  0.1058E+02
   9.465  0.2360E+01  0.1061E+02
   9.475  0.2889E+01  0.1063E+02
   9.485  0.2762E+01  0.1066E+02
   9.495  0.2670E+01  0.1069E+02
   9.505  0.2538E+01  0.1071E+02
   9.515  0.2379E+01  0.1074E+02
   9.525  0.2313E+01  0.1076E+02
   9.535  0.2303E+01  0.1079E+02
   9.545  0.2294E+01  0.1081E+02
   9.555  0.2285E+01  0.1083E+02
   9.565  0.2277E+01  0.1085E+02
   9.575  0.2270E+01  0.1088E+02
   9.585  0.2262E+01  0.1090E+02
   9.595  0.2256E+01  0.1092E+02
   9.605  0.2250E+01  0.1094E+02
   9.615  0.2244E+01  0.1097E+02
   9.625  0.2240E+01  0.1099E+02
   9.635  0.2235E+01  0.1101E+02
   9.645  0.2229E+01  0.1103E+02
   9.655  0.2223E+01  0.1106E+02
   9.665  0.2215E+01  0.1108E+02
   9.675  0.2207E+01  0.1110E+02
   9.685  0.2198E+01  0.1112E+02
   9.695  0.2187E+01  0.1114E+02
   9.705  0.2351E+01  0.1117E+02
   9.715  0.2228E+01  0.1119E+02
   9.725  0.2140E+01  0.1121E+02
   9.735  0.2097E+01  0.1123E+02
   9.745  0.2079E+01  0.1125E+02
   9.755  0.2058E+01  0.1127E+02
   9.765  0.2035E+01  0.1129E+02
   9.775  0.2010E+01  0.1132E+02
   9.785  0.1962E+01  0.1133E+02
   9.795  0.1918E+01  0.1135E+02
   9.805  0.1875E+01  0.1137E+02
   9.815  0.1814E+01  0.1139E+02
   9.825  0.1767E+01  0.1141E+02
   9.835  0.1743E+01  0.1143E+02
   9.845  0.1723E+01  0.1144E+02
   9.855  0.1702E+01  0.1146E+02
   9.865  0.1681E+01  0.1148E+02
   9.875  0.1660E+01  0.1150E+02
   9.885  0.1637E+01  0.1151E+02
   9.895  0.1615E+01  0.1153E+02
   9.905  0.1592E+01  0.1154E+02
   9.915  0.1568E+01  0.1156E+02
   9.925  0.1544E+01  0.1158E+02
   9.935  0.1528E+01  0.1159E+02
   9.945  0.1516E+01  0.1161E+02
   9.955  0.1504E+01  0.1162E+02
   9.965  0.1492E+01  0.1164E+02
   9.975  0.1481E+01  0.1165E+02
   9.985  0.1471E+01  0.1167E+02
   9.995  0.1460E+01  0.1168E+02
  10.005  0.1450E+01  0.1169E+02
  10.015  0.1441E+01  0.1171E+02
  10.025  0.1432E+01  0.1172E+02
  10.035  0.1423E+01  0.1174E+02
  10.045  0.1415E+01  0.1175E+02
  10.055  0.1407E+01  0.1177E+02
  10.065  0.1400E+01  0.1178E+02
  10.075  0.1392E+01  0.1179E+02
  10.085  0.1384E+01  0.1181E+02
  10.095  0.1377E+01  0.1182E+02
  10.105  0.1370E+01  0.1184E+02
  10.115  0.1362E+01  0.1185E+02
  10.125  0.1355E+01  0.1186E+02
  10.135  0.1347E+01  0.1188E+02
  10.145  0.1339E+01  0.1189E+02
  10.155  0.1332E+01  0.1190E+02
  10.165  0.1324E+01  0.1192E+02
  10.175  0.1316E+01  0.1193E+02
  10.185  0.1308E+01  0.1194E+02
  10.195  0.1299E+01  0.1196E+02
  10.205  0.1290E+01  0.1197E+02
  10.215  0.1281E+01  0.1198E+02
  10.225  0.1272E+01  0.1199E+02
  10.235  0.1263E+01  0.1201E+02
  10.245  0.1254E+01  0.1202E+02
  10.255  0.1246E+01  0.1203E+02
  10.265  0.1237E+01  0.1204E+02
  10.275  0.1239E+01  0.1206E+02
  10.285  0.1245E+01  0.1207E+02
  10.295  0.1248E+01  0.1208E+02
  10.305  0.1247E+01  0.1209E+02
  10.315  0.1244E+01  0.1211E+02
  10.325  0.1237E+01  0.1212E+02
  10.335  0.1227E+01  0.1213E+02
  10.345  0.1214E+01  0.1214E+02
  10.355  0.1198E+01  0.1216E+02
  10.365  0.1178E+01  0.1217E+02
  10.375  0.1165E+01  0.1218E+02
  10.385  0.1158E+01  0.1219E+02
  10.395  0.1152E+01  0.1220E+02
  10.405  0.1148E+01  0.1221E+02
  10.415  0.1143E+01  0.1223E+02
  10.425  0.1139E+01  0.1224E+02
  10.435  0.1134E+01  0.1225E+02
  10.445  0.1128E+01  0.1226E+02
  10.455  0.1121E+01  0.1227E+02
  10.465  0.1114E+01  0.1228E+02
  10.475  0.1107E+01  0.1229E+02
  10.485  0.1100E+01  0.1230E+02
  10.495  0.1093E+01  0.1232E+02
  10.505  0.1086E+01  0.1233E+02
  10.515  0.1080E+01  0.1234E+02
  10.525  0.1073E+01  0.1235E+02
  10.535  0.1068E+01  0.1236E+02
  10.545  0.1062E+01  0.1237E+02
  10.555  0.1057E+01  0.1238E+02
  10.565  0.1053E+01  0.1239E+02
  10.575  0.1049E+01  0.1240E+02
  10.585  0.1045E+01  0.1241E+02
  10.595  0.1042E+01  0.1242E+02
  10.605  0.1039E+01  0.1243E+02
  10.615  0.1037E+01  0.1244E+02
  10.625  0.1035E+01  0.1245E+02
  10.635  0.1032E+01  0.1246E+02
  10.645  0.1030E+01  0.1247E+02
  10.655  0.1029E+01  0.1248E+02
  10.665  0.1030E+01  0.1249E+02
  10.675  0.1035E+01  0.1250E+02
  10.685  0.1046E+01  0.1251E+02
  10.695  0.1061E+01  0.1253E+02
  10.705  0.1077E+01  0.1254E+02
  10.715  0.1094E+01  0.1255E+02
  10.725  0.1113E+01  0.1256E+02
  10.735  0.1132E+01  0.1257E+02
  10.745  0.1153E+01  0.1258E+02
  10.755  0.1176E+01  0.1259E+02
  10.765  0.1199E+01  0.1260E+02
  10.775  0.1216E+01  0.1262E+02
  10.785  0.1144E+01  0.1263E+02
  10.795  0.1149E+01  0.1264E+02
  10.805  0.1154E+01  0.1265E+02
  10.815  0.1159E+01  0.1266E+02
  10.825  0.1164E+01  0.1267E+02
  10.835  0.1169E+01  0.1269E+02
  10.845  0.1174E+01  0.1270E+02
  10.855  0.1178E+01  0.1271E+02
  10.865  0.1183E+01  0.1272E+02
  10.875  0.1187E+01  0.1273E+02
  10.885  0.1192E+01  0.1274E+02
  10.895  0.1196E+01  0.1276E+02
  10.905  0.1202E+01  0.1277E+02
  10.915  0.1212E+01  0.1278E+02
  10.925  0.1223E+01  0.1279E+02
  10.935  0.1234E+01  0.1280E+02
  10.945  0.1243E+01  0.1282E+02
  10.955  0.1252E+01  0.1283E+02
  10.965  0.1261E+01  0.1284E+02
  10.975  0.1269E+01  0.1285E+02
  10.985  0.1276E+01  0.1287E+02
  10.995  0.1283E+01  0.1288E+02
  11.005  0.1289E+01  0.1289E+02
  11.015  0.1296E+01  0.1291E+02
  11.025  0.1303E+01  0.1292E+02
  11.035  0.1311E+01  0.1293E+02
  11.045  0.1321E+01  0.1295E+02
  11.055  0.1331E+01  0.1296E+02
  11.065  0.1333E+01  0.1297E+02
  11.075  0.1333E+01  0.1299E+02
  11.085  0.1331E+01  0.1300E+02
  11.095  0.1329E+01  0.1301E+02
  11.105  0.1325E+01  0.1303E+02
  11.115  0.1308E+01  0.1304E+02
  11.125  0.1291E+01  0.1305E+02
  11.135  0.1283E+01  0.1306E+02
  11.145  0.1283E+01  0.1308E+02
  11.155  0.1275E+01  0.1309E+02
  11.165  0.1244E+01  0.1310E+02
  11.175  0.1217E+01  0.1311E+02
  11.185  0.1194E+01  0.1313E+02
  11.195  0.1178E+01  0.1314E+02
  11.205  0.1166E+01  0.1315E+02
  11.215  0.1154E+01  0.1316E+02
  11.225  0.1144E+01  0.1317E+02
  11.235  0.1135E+01  0.1318E+02
  11.245  0.1125E+01  0.1320E+02
  11.255  0.1120E+01  0.1321E+02
  11.265  0.1131E+01  0.1322E+02
  11.275  0.1124E+01  0.1323E+02
  11.285  0.1102E+01  0.1324E+02
  11.295  0.1065E+01  0.1325E+02
  11.305  0.1057E+01  0.1326E+02
  11.315  0.1058E+01  0.1327E+02
  11.325  0.1059E+01  0.1328E+02
  11.335  0.1060E+01  0.1329E+02
  11.345  0.1061E+01  0.1330E+02
  11.355  0.1062E+01  0.1332E+02
  11.365  0.1063E+01  0.1333E+02
  11.375  0.1063E+01  0.1334E+02
  11.385  0.1063E+01  0.1335E+02
  11.395  0.1062E+01  0.1336E+02
  11.405  0.1062E+01  0.1337E+02
  11.415  0.1061E+01  0.1338E+02
  11.425  0.1060E+01  0.1339E+02
  11.435  0.1060E+01  0.1340E+02
  11.445  0.1059E+01  0.1341E+02
  11.455  0.1058E+01  0.1342E+02
  11.465  0.1058E+01  0.1343E+02
  11.475  0.1060E+01  0.1344E+02
  11.485  0.1062E+01  0.1345E+02
  11.495  0.1064E+01  0.1346E+02
  11.505  0.1066E+01  0.1347E+02
  11.515  0.1068E+01  0.1349E+02
  11.525  0.1069E+01  0.1350E+02
  11.535  0.1071E+01  0.1351E+02
  11.545  0.1072E+01  0.1352E+02
  11.555  0.1073E+01  0.1353E+02
  11.565  0.1073E+01  0.1354E+02
  11.575  0.1073E+01  0.1355E+02
  11.585  0.1073E+01  0.1356E+02
  11.595  0.1072E+01  0.1357E+02
  11.605  0.1072E+01  0.1358E+02
  11.615  0.1071E+01  0.1359E+02
  11.625  0.1071E+01  0.1360E+02
  11.635  0.1070E+01  0.1361E+02
  11.645  0.1070E+01  0.1362E+02
  11.655  0.1069E+01  0.1364E+02
  11.665  0.1068E+01  0.1365E+02
  11.675  0.1068E+01  0.1366E+02
  11.685  0.1067E+01  0.1367E+02
  11.695  0.1066E+01  0.1368E+02
  11.705  0.1065E+01  0.1369E+02
  11.715  0.1064E+01  0.1370E+02
  11.725  0.1063E+01  0.1371E+02
  11.735  0.1062E+01  0.1372E+02
  11.745  0.1060E+01  0.1373E+02
  11.755  0.1059E+01  0.1374E+02
  11.765  0.1058E+01  0.1375E+02
  11.775  0.1056E+01  0.1376E+02
  11.785  0.1055E+01  0.1377E+02
  11.795  0.1053E+01  0.1378E+02
  11.805  0.1052E+01  0.1379E+02
  11.815  0.1050E+01  0.1381E+02
  11.825  0.1049E+01  0.1382E+02
  11.835  0.1047E+01  0.1383E+02
  11.845  0.1045E+01  0.1384E+02
  11.855  0.1044E+01  0.1385E+02
  11.865  0.1042E+01  0.1386E+02
  11.875  0.1041E+01  0.1387E+02
  11.885  0.1039E+01  0.1388E+02
  11.895  0.1037E+01  0.1389E+02
  11.905  0.1035E+01  0.1390E+02
  11.915  0.1034E+01  0.1391E+02
  11.925  0.1035E+01  0.1392E+02
  11.935  0.1043E+01  0.1393E+02
  11.945  0.1050E+01  0.1394E+02
  11.955  0.1056E+01  0.1395E+02
  11.965  0.1060E+01  0.1396E+02
  11.975  0.1064E+01  0.1397E+02
  11.985  0.1067E+01  0.1398E+02
  11.995  0.1069E+01  0.1399E+02
  12.005  0.1069E+01  0.1400E+02
  12.015  0.1066E+01  0.1401E+02
  12.025  0.1060E+01  0.1403E+02
  12.035  0.1054E+01  0.1404E+02
  12.045  0.1048E+01  0.1405E+02
  12.055  0.1032E+01  0.1406E+02
  12.065  0.1018E+01  0.1407E+02
  12.075  0.1007E+01  0.1408E+02
  12.085  0.9970E+00  0.1409E+02
  12.095  0.9896E+00  0.1410E+02
  12.105  0.9844E+00  0.1411E+02
  12.115  0.9812E+00  0.1412E+02
  12.125  0.9790E+00  0.1413E+02
  12.135  0.9775E+00  0.1414E+02
  12.145  0.9762E+00  0.1415E+02
  12.155  0.9751E+00  0.1416E+02
  12.165  0.9742E+00  0.1417E+02
  12.175  0.9734E+00  0.1418E+02
  12.185  0.9729E+00  0.1419E+02
  12.195  0.9725E+00  0.1420E+02
  12.205  0.9724E+00  0.1420E+02
  12.215  0.9724E+00  0.1421E+02
  12.225  0.9727E+00  0.1422E+02
  12.235  0.9731E+00  0.1423E+02
  12.245  0.9737E+00  0.1424E+02
  12.255  0.9745E+00  0.1425E+02
  12.265  0.9756E+00  0.1426E+02
  12.275  0.9768E+00  0.1427E+02
  12.285  0.9782E+00  0.1428E+02
  12.295  0.9798E+00  0.1429E+02
  12.305  0.9816E+00  0.1430E+02
  12.315  0.9836E+00  0.1431E+02
  12.325  0.9857E+00  0.1432E+02
  12.335  0.9881E+00  0.1433E+02
  12.345  0.9907E+00  0.1434E+02
  12.355  0.9943E+00  0.1435E+02
  12.365  0.1000E+01  0.1436E+02
  12.375  0.1006E+01  0.1437E+02
  12.385  0.1013E+01  0.1438E+02
  12.395  0.1019E+01  0.1439E+02
  12.405  0.1025E+01  0.1440E+02
  12.415  0.1031E+01  0.1441E+02
  12.425  0.1037E+01  0.1442E+02
  12.435  0.1043E+01  0.1443E+02
  12.445  0.1049E+01  0.1444E+02
  12.455  0.1054E+01  0.1445E+02
  12.465  0.1060E+01  0.1446E+02
  12.475  0.1065E+01  0.1448E+02
  12.485  0.1071E+01  0.1449E+02
  12.495  0.1077E+01  0.1450E+02
  12.505  0.1083E+01  0.1451E+02
  12.515  0.1089E+01  0.1452E+02
  12.525  0.1095E+01  0.1453E+02
  12.535  0.1101E+01  0.1454E+02
  12.545  0.1107E+01  0.1455E+02
  12.555  0.1113E+01  0.1456E+02
  12.565  0.1119E+01  0.1457E+02
  12.575  0.1126E+01  0.1458E+02
  12.585  0.1132E+01  0.1460E+02
  12.595  0.1138E+01  0.1461E+02
  12.605  0.1145E+01  0.1462E+02
  12.615  0.1151E+01  0.1463E+02
  12.625  0.1158E+01  0.1464E+02
  12.635  0.1165E+01  0.1465E+02
  12.645  0.1171E+01  0.1467E+02
  12.655  0.1178E+01  0.1468E+02
  12.665  0.1185E+01  0.1469E+02
  12.675  0.1192E+01  0.1470E+02
  12.685  0.1199E+01  0.1471E+02
  12.695  0.1207E+01  0.1472E+02
  12.705  0.1214E+01  0.1474E+02
  12.715  0.1221E+01  0.1475E+02
  12.725  0.1229E+01  0.1476E+02
  12.735  0.1236E+01  0.1477E+02
  12.745  0.1244E+01  0.1479E+02
  12.755  0.1251E+01  0.1480E+02
  12.765  0.1259E+01  0.1481E+02
  12.775  0.1266E+01  0.1482E+02
  12.785  0.1272E+01  0.1484E+02
  12.795  0.1278E+01  0.1485E+02
  12.805  0.1284E+01  0.1486E+02
  12.815  0.1290E+01  0.1487E+02
  12.825  0.1296E+01  0.1489E+02
  12.835  0.1299E+01  0.1490E+02
  12.845  0.1298E+01  0.1491E+02
  12.855  0.1295E+01  0.1493E+02
  12.865  0.1287E+01  0.1494E+02
  12.875  0.1276E+01  0.1495E+02
  12.885  0.1262E+01  0.1497E+02
  12.895  0.1244E+01  0.1498E+02
  12.905  0.1222E+01  0.1499E+02
  12.915  0.1196E+01  0.1500E+02
  12.925  0.1172E+01  0.1501E+02
  12.935  0.1152E+01  0.1503E+02
  12.945  0.1135E+01  0.1504E+02
  12.955  0.1121E+01  0.1505E+02
  12.965  0.1109E+01  0.1506E+02
  12.975  0.1095E+01  0.1507E+02
  12.985  0.1077E+01  0.1508E+02
  12.995  0.1058E+01  0.1509E+02
  13.005  0.1037E+01  0.1510E+02
  13.015  0.1013E+01  0.1511E+02
  13.025  0.9878E+00  0.1512E+02
  13.035  0.9643E+00  0.1513E+02
  13.045  0.9504E+00  0.1514E+02
  13.055  0.9396E+00  0.1515E+02
  13.065  0.9310E+00  0.1516E+02
  13.075  0.9227E+00  0.1517E+02
  13.085  0.9144E+00  0.1518E+02
  13.095  0.9063E+00  0.1519E+02
  13.105  0.8983E+00  0.1520E+02
  13.115  0.8904E+00  0.1521E+02
  13.125  0.8826E+00  0.1522E+02
  13.135  0.8749E+00  0.1522E+02
  13.145  0.8673E+00  0.1523E+02
  13.155  0.8599E+00  0.1524E+02
  13.165  0.8525E+00  0.1525E+02
  13.175  0.8455E+00  0.1526E+02
  13.185  0.8390E+00  0.1527E+02
  13.195  0.8325E+00  0.1528E+02
  13.205  0.8260E+00  0.1528E+02
  13.215  0.8196E+00  0.1529E+02
  13.225  0.8131E+00  0.1530E+02
  13.235  0.8067E+00  0.1531E+02
  13.245  0.8003E+00  0.1532E+02
  13.255  0.7940E+00  0.1532E+02
  13.265  0.7877E+00  0.1533E+02
  13.275  0.7814E+00  0.1534E+02
  13.285  0.7751E+00  0.1535E+02
  13.295  0.7688E+00  0.1536E+02
  13.305  0.7626E+00  0.1536E+02
  13.315  0.7564E+00  0.1537E+02
  13.325  0.7502E+00  0.1538E+02
  13.335  0.7441E+00  0.1539E+02
  13.345  0.7379E+00  0.1539E+02
  13.355  0.7318E+00  0.1540E+02
  13.365  0.7258E+00  0.1541E+02
  13.375  0.7197E+00  0.1541E+02
  13.385  0.7137E+00  0.1542E+02
  13.395  0.7077E+00  0.1543E+02
  13.405  0.7017E+00  0.1544E+02
  13.415  0.6958E+00  0.1544E+02
  13.425  0.6898E+00  0.1545E+02
  13.435  0.6839E+00  0.1546E+02
  13.445  0.6781E+00  0.1546E+02
  13.455  0.6722E+00  0.1547E+02
  13.465  0.6664E+00  0.1548E+02
  13.475  0.6606E+00  0.1548E+02
  13.485  0.6548E+00  0.1549E+02
  13.495  0.6491E+00  0.1550E+02
  13.505  0.6434E+00  0.1550E+02
  13.515  0.6377E+00  0.1551E+02
  13.525  0.6320E+00  0.1552E+02
  13.535  0.6263E+00  0.1552E+02
  13.545  0.6207E+00  0.1553E+02
  13.555  0.6151E+00  0.1553E+02
  13.565  0.6095E+00  0.1554E+02
  13.575  0.6040E+00  0.1555E+02
  13.585  0.5985E+00  0.1555E+02
  13.595  0.5930E+00  0.1556E+02
  13.605  0.5875E+00  0.1556E+02
  13.615  0.5821E+00  0.1557E+02
  13.625  0.5766E+00  0.1558E+02
  13.635  0.5713E+00  0.1558E+02
  13.645  0.5667E+00  0.1559E+02
  13.655  0.5638E+00  0.1559E+02
  13.665  0.5625E+00  0.1560E+02
  13.675  0.5625E+00  0.1560E+02
  13.685  0.5631E+00  0.1561E+02
  13.695  0.5642E+00  0.1562E+02
  13.705  0.5658E+00  0.1562E+02
  13.715  0.5680E+00  0.1563E+02
  13.725  0.5707E+00  0.1563E+02
  13.735  0.5740E+00  0.1564E+02
  13.745  0.5778E+00  0.1564E+02
  13.755  0.5822E+00  0.1565E+02
  13.765  0.5871E+00  0.1566E+02
  13.775  0.5926E+00  0.1566E+02
  13.785  0.5986E+00  0.1567E+02
  13.795  0.6037E+00  0.1567E+02
  13.805  0.6043E+00  0.1568E+02
  13.815  0.6000E+00  0.1569E+02
  13.825  0.6065E+00  0.1569E+02
  13.835  0.6115E+00  0.1570E+02
  13.845  0.5780E+00  0.1570E+02
  13.855  0.5060E+00  0.1571E+02
  13.865  0.4925E+00  0.1571E+02
  13.875  0.4836E+00  0.1572E+02
  13.885  0.4743E+00  0.1572E+02
  13.895  0.4646E+00  0.1573E+02
  13.905  0.4546E+00  0.1573E+02
  13.915  0.4441E+00  0.1574E+02
  13.925  0.4332E+00  0.1574E+02
  13.935  0.4220E+00  0.1575E+02
  13.945  0.4104E+00  0.1575E+02
  13.955  0.3983E+00  0.1575E+02
  13.965  0.3859E+00  0.1576E+02
  13.975  0.3731E+00  0.1576E+02
  13.985  0.3599E+00  0.1577E+02
  13.995  0.3463E+00  0.1577E+02
  14.005  0.3323E+00  0.1577E+02
  14.015  0.3179E+00  0.1578E+02
  14.025  0.3032E+00  0.1578E+02
  14.035  0.2880E+00  0.1578E+02
  14.045  0.2724E+00  0.1579E+02
  14.055  0.2618E+00  0.1579E+02
  14.065  0.2602E+00  0.1579E+02
  14.075  0.2586E+00  0.1579E+02
  14.085  0.2571E+00  0.1580E+02
  14.095  0.2556E+00  0.1580E+02
  14.105  0.2541E+00  0.1580E+02
  14.115  0.2527E+00  0.1580E+02
  14.125  0.2513E+00  0.1581E+02
  14.135  0.2499E+00  0.1581E+02
  14.145  0.2486E+00  0.1581E+02
  14.155  0.2473E+00  0.1581E+02
  14.165  0.2461E+00  0.1582E+02
  14.175  0.2449E+00  0.1582E+02
  14.185  0.2437E+00  0.1582E+02
  14.195  0.2425E+00  0.1582E+02
  14.205  0.2414E+00  0.1583E+02
  14.215  0.2403E+00  0.1583E+02
  14.225  0.2396E+00  0.1583E+02
  14.235  0.2389E+00  0.1583E+02
  14.245  0.2383E+00  0.1584E+02
  14.255  0.2376E+00  0.1584E+02
  14.265  0.2369E+00  0.1584E+02
  14.275  0.2362E+00  0.1584E+02
  14.285  0.2355E+00  0.1584E+02
  14.295  0.2349E+00  0.1585E+02
  14.305  0.2342E+00  0.1585E+02
  14.315  0.2336E+00  0.1585E+02
  14.325  0.2329E+00  0.1585E+02
  14.335  0.2323E+00  0.1586E+02
  14.345  0.2316E+00  0.1586E+02
  14.355  0.2310E+00  0.1586E+02
  14.365  0.2304E+00  0.1586E+02
  14.375  0.2297E+00  0.1587E+02
  14.385  0.2291E+00  0.1587E+02
  14.395  0.2285E+00  0.1587E+02
  14.405  0.2279E+00  0.1587E+02
  14.415  0.2273E+00  0.1587E+02
  14.425  0.2267E+00  0.1588E+02
  14.435  0.2261E+00  0.1588E+02
  14.445  0.2255E+00  0.1588E+02
  14.455  0.2249E+00  0.1588E+02
  14.465  0.2243E+00  0.1589E+02
  14.475  0.2237E+00  0.1589E+02
  14.485  0.2231E+00  0.1589E+02
  14.495  0.2226E+00  0.1589E+02
  14.505  0.2220E+00  0.1589E+02
  14.515  0.2214E+00  0.1590E+02
  14.525  0.2209E+00  0.1590E+02
  14.535  0.2203E+00  0.1590E+02
  14.545  0.2198E+00  0.1590E+02
  14.555  0.2192E+00  0.1591E+02
  14.565  0.2187E+00  0.1591E+02
  14.575  0.2183E+00  0.1591E+02
  14.585  0.2204E+00  0.1591E+02
  14.595  0.2235E+00  0.1591E+02
  14.605  0.2276E+00  0.1592E+02
  14.615  0.2320E+00  0.1592E+02
  14.625  0.2358E+00  0.1592E+02
  14.635  0.2388E+00  0.1592E+02
  14.645  0.2410E+00  0.1593E+02
  14.655  0.2425E+00  0.1593E+02
  14.665  0.2432E+00  0.1593E+02
  14.675  0.2432E+00  0.1593E+02
  14.685  0.2424E+00  0.1594E+02
  14.695  0.2409E+00  0.1594E+02
  14.705  0.2386E+00  0.1594E+02
  14.715  0.2356E+00  0.1594E+02
  14.725  0.2318E+00  0.1595E+02
  14.735  0.2272E+00  0.1595E+02
  14.745  0.2219E+00  0.1595E+02
  14.755  0.2159E+00  0.1595E+02
  14.765  0.2090E+00  0.1595E+02
  14.775  0.2014E+00  0.1596E+02
  14.785  0.1929E+00  0.1596E+02
  14.795  0.1837E+00  0.1596E+02
  14.805  0.1737E+00  0.1596E+02
  14.815  0.1629E+00  0.1596E+02
  14.825  0.1513E+00  0.1597E+02
  14.835  0.1390E+00  0.1597E+02
  14.845  0.1258E+00  0.1597E+02
  14.855  0.1186E+00  0.1597E+02
  14.865  0.1120E+00  0.1597E+02
  14.875  0.1052E+00  0.1597E+02
  14.885  0.9811E-01  0.1597E+02
  14.895  0.9075E-01  0.1597E+02
  14.905  0.8312E-01  0.1597E+02
  14.915  0.7523E-01  0.1598E+02
  14.925  0.6707E-01  0.1598E+02
  14.935  0.5865E-01  0.1598E+02
  14.945  0.5492E-01  0.1598E+02
  14.955  0.5404E-01  0.1598E+02
  14.965  0.5317E-01  0.1598E+02
  14.975  0.5230E-01  0.1598E+02
  14.985  0.5144E-01  0.1598E+02
  14.995  0.5059E-01  0.1598E+02
  15.005  0.4974E-01  0.1598E+02
  15.015  0.4891E-01  0.1598E+02
  15.025  0.4807E-01  0.1598E+02
  15.035  0.4725E-01  0.1598E+02
  15.045  0.4643E-01  0.1598E+02
  15.055  0.4563E-01  0.1598E+02
  15.065  0.4482E-01  0.1598E+02
  15.075  0.4403E-01  0.1598E+02
  15.085  0.4324E-01  0.1598E+02
  15.095  0.4246E-01  0.1598E+02
  15.105  0.4169E-01  0.1598E+02
  15.115  0.4092E-01  0.1599E+02
  15.125  0.4016E-01  0.1599E+02
  15.135  0.3941E-01  0.1599E+02
  15.145  0.3866E-01  0.1599E+02
  15.155  0.3792E-01  0.1599E+02
  15.165  0.3719E-01  0.1599E+02
  15.175  0.3647E-01  0.1599E+02
  15.185  0.3575E-01  0.1599E+02
  15.195  0.3504E-01  0.1599E+02
  15.205  0.3434E-01  0.1599E+02
  15.215  0.3364E-01  0.1599E+02
  15.225  0.3296E-01  0.1599E+02
  15.235  0.3227E-01  0.1599E+02
  15.245  0.3160E-01  0.1599E+02
  15.255  0.3093E-01  0.1599E+02
  15.265  0.3027E-01  0.1599E+02
  15.275  0.2962E-01  0.1599E+02
  15.285  0.2897E-01  0.1599E+02
  15.295  0.2834E-01  0.1599E+02
  15.305  0.2770E-01  0.1599E+02
  15.315  0.2708E-01  0.1599E+02
  15.325  0.2646E-01  0.1599E+02
  15.335  0.2585E-01  0.1599E+02
  15.345  0.2525E-01  0.1599E+02
  15.355  0.2465E-01  0.1599E+02
  15.365  0.2407E-01  0.1599E+02
  15.375  0.2348E-01  0.1599E+02
  15.385  0.2291E-01  0.1599E+02
  15.395  0.2234E-01  0.1599E+02
  15.405  0.2178E-01  0.1599E+02
  15.415  0.2123E-01  0.1599E+02
  15.425  0.2068E-01  0.1599E+02
  15.435  0.2014E-01  0.1599E+02
  15.445  0.1961E-01  0.1600E+02
  15.455  0.1909E-01  0.1600E+02
  15.465  0.1857E-01  0.1600E+02
  15.475  0.1806E-01  0.1600E+02
  15.485  0.1756E-01  0.1600E+02
  15.495  0.1706E-01  0.1600E+02
  15.505  0.1657E-01  0.1600E+02
  15.515  0.1609E-01  0.1600E+02
  15.525  0.1561E-01  0.1600E+02
  15.535  0.1515E-01  0.1600E+02
  15.545  0.1468E-01  0.1600E+02
  15.555  0.1423E-01  0.1600E+02
  15.565  0.1378E-01  0.1600E+02
  15.575  0.1335E-01  0.1600E+02
  15.585  0.1291E-01  0.1600E+02
  15.595  0.1249E-01  0.1600E+02
  15.605  0.1207E-01  0.1600E+02
  15.615  0.1166E-01  0.1600E+02
  15.625  0.1126E-01  0.1600E+02
  15.635  0.1086E-01  0.1600E+02
  15.645  0.1047E-01  0.1600E+02
  15.655  0.1009E-01  0.1600E+02
  15.665  0.9711E-02  0.1600E+02
  15.675  0.9343E-02  0.1600E+02
  15.685  0.8982E-02  0.1600E+02
  15.695  0.8628E-02  0.1600E+02
  15.705  0.8281E-02  0.1600E+02
  15.715  0.7942E-02  0.1600E+02
  15.725  0.7609E-02  0.1600E+02
  15.735  0.7284E-02  0.1600E+02
  15.745  0.6965E-02  0.1600E+02
  15.755  0.6654E-02  0.1600E+02
  15.765  0.6350E-02  0.1600E+02
  15.775  0.6053E-02  0.1600E+02
  15.785  0.5763E-02  0.1600E+02
  15.795  0.5480E-02  0.1600E+02
  15.805  0.5204E-02  0.1600E+02
  15.815  0.4936E-02  0.1600E+02
  15.825  0.4674E-02  0.1600E+02
  15.835  0.4420E-02  0.1600E+02
  15.845  0.4173E-02  0.1600E+02
  15.855  0.3933E-02  0.1600E+02
  15.865  0.3700E-02  0.1600E+02
  15.875  0.3474E-02  0.1600E+02
  15.885  0.3255E-02  0.1600E+02
  15.895  0.3043E-02  0.1600E+02
  15.905  0.2839E-02  0.1600E+02
  15.915  0.2641E-02  0.1600E+02
  15.925  0.2451E-02  0.1600E+02
  15.935  0.2268E-02  0.1600E+02
  15.945  0.2092E-02  0.1600E+02
  15.955  0.1923E-02  0.1600E+02
  15.965  0.1761E-02  0.1600E+02
  15.975  0.1606E-02  0.1600E+02
  15.985  0.1459E-02  0.1600E+02
  15.995  0.1318E-02  0.1600E+02
  16.005  0.1185E-02  0.1600E+02
  16.015  0.1058E-02  0.1600E+02
  16.025  0.9392E-03  0.1600E+02
  16.035  0.8271E-03  0.1600E+02
  16.045  0.7222E-03  0.1600E+02
  16.055  0.6244E-03  0.1600E+02
  16.065  0.5337E-03  0.1600E+02
  16.075  0.4501E-03  0.1600E+02
  16.085  0.3736E-03  0.1600E+02
  16.095  0.3043E-03  0.1600E+02
  16.105  0.2420E-03  0.1600E+02
  16.115  0.1869E-03  0.1600E+02
  16.125  0.1389E-03  0.1600E+02
  16.135  0.9797E-04  0.1600E+02
  16.145  0.6419E-04  0.1600E+02
  16.155  0.3753E-04  0.1600E+02
  16.165  0.1798E-04  0.1600E+02
  16.175  0.5540E-05  0.1600E+02
  16.185  0.2186E-06  0.1600E+02
